R.Time (min)	Intensity
0.00000	-37
0.00833	-37
0.01667	-1
0.02500	-1
0.03333	-3
0.04167	-4
0.05000	-5
0.05833	-6
0.06667	-6
0.07500	-7
0.08333	-7
0.09167	-7
0.10000	-7
0.10833	-7
0.11667	-7
0.12500	-7
0.13333	-8
0.14167	-8
0.15000	-9
0.15833	-9
0.16667	-10
0.17500	-10
0.18333	-11
0.19167	-11
0.20000	-12
0.20833	-12
0.21667	-12
0.22500	-13
0.23333	-13
0.24167	-14
0.25000	-14
0.25833	-15
0.26667	-15
0.27500	-16
0.28333	-16
0.29167	-17
0.30000	-18
0.30833	-19
0.31667	-19
0.32500	-20
0.33333	-20
0.34167	-20
0.35000	-20
0.35833	-20
0.36667	-21
0.37500	-22
0.38333	-23
0.39167	-24
0.40000	-24
0.40833	-25
0.41667	-25
0.42500	-26
0.43333	-27
0.44167	-27
0.45000	-28
0.45833	-28
0.46667	-29
0.47500	-30
0.48333	-31
0.49167	-32
0.50000	-32
0.50833	-33
0.51667	-34
0.52500	-35
0.53333	-35
0.54167	-36
0.55000	-37
0.55833	-37
0.56667	-38
0.57500	-38
0.58333	-39
0.59167	-39
0.60000	-40
0.60833	-40
0.61667	-40
0.62500	-41
0.63333	-41
0.64167	-42
0.65000	-43
0.65833	-44
0.66667	-44
0.67500	-45
0.68333	-45
0.69167	-46
0.70000	-46
0.70833	-46
0.71667	-47
0.72500	-48
0.73333	-49
0.74167	-49
0.75000	-49
0.75833	-50
0.76667	-50
0.77500	-51
0.78333	-51
0.79167	-52
0.80000	-52
0.80833	-52
0.81667	-53
0.82500	-53
0.83333	-54
0.84167	-54
0.85000	-55
0.85833	-55
0.86667	-55
0.87500	-56
0.88333	-56
0.89167	-57
0.90000	-57
0.90833	-57
0.91667	-58
0.92500	-58
0.93333	-59
0.94167	-60
0.95000	-60
0.95833	-61
0.96667	-61
0.97500	-62
0.98333	-63
0.99167	-64
1.00000	-64
1.00833	-65
1.01667	-65
1.02500	-66
1.03333	-66
1.04167	-67
1.05000	-67
1.05833	-67
1.06667	-68
1.07500	-68
1.08333	-69
1.09167	-69
1.10000	-70
1.10833	-70
1.11667	-71
1.12500	-71
1.13333	-72
1.14167	-72
1.15000	-73
1.15833	-73
1.16667	-74
1.17500	-74
1.18333	-74
1.19167	-75
1.20000	-75
1.20833	-75
1.21667	-76
1.22500	-76
1.23333	-76
1.24167	-76
1.25000	-76
1.25833	-77
1.26667	-77
1.27500	-77
1.28333	-77
1.29167	-77
1.30000	-77
1.30833	-77
1.31667	-77
1.32500	-78
1.33333	-78
1.34167	-79
1.35000	-79
1.35833	-80
1.36667	-80
1.37500	-81
1.38333	-81
1.39167	-82
1.40000	-82
1.40833	-82
1.41667	-83
1.42500	-83
1.43333	-83
1.44167	-83
1.45000	-83
1.45833	-83
1.46667	-83
1.47500	-83
1.48333	-83
1.49167	-84
1.50000	-84
1.50833	-84
1.51667	-85
1.52500	-85
1.53333	-85
1.54167	-85
1.55000	-85
1.55833	-85
1.56667	-85
1.57500	-86
1.58333	-87
1.59167	-87
1.60000	-88
1.60833	-88
1.61667	-89
1.62500	-89
1.63333	-90
1.64167	-90
1.65000	-90
1.65833	-91
1.66667	-91
1.67500	-92
1.68333	-92
1.69167	-92
1.70000	-93
1.70833	-93
1.71667	-94
1.72500	-95
1.73333	-95
1.74167	-95
1.75000	-96
1.75833	-96
1.76667	-96
1.77500	-97
1.78333	-97
1.79167	-97
1.80000	-98
1.80833	-98
1.81667	-98
1.82500	-99
1.83333	-99
1.84167	-99
1.85000	-100
1.85833	-100
1.86667	-101
1.87500	-101
1.88333	-102
1.89167	-102
1.90000	-102
1.90833	-103
1.91667	-103
1.92500	-104
1.93333	-104
1.94167	-104
1.95000	-104
1.95833	-104
1.96667	-104
1.97500	-104
1.98333	-104
1.99167	-104
2.00000	-104
2.00833	-104
2.01667	-104
2.02500	-104
2.03333	-104
2.04167	-104
2.05000	-104
2.05833	-104
2.06667	-104
2.07500	-104
2.08333	-104
2.09167	-104
2.10000	-104
2.10833	-103
2.11667	-103
2.12500	-103
2.13333	-103
2.14167	-102
2.15000	-102
2.15833	-102
2.16667	-101
2.17500	-101
2.18333	-100
2.19167	-99
2.20000	-98
2.20833	-97
2.21667	-97
2.22500	-96
2.23333	-95
2.24167	-94
2.25000	-92
2.25833	-91
2.26667	-90
2.27500	-88
2.28333	-87
2.29167	-85
2.30000	-83
2.30833	-82
2.31667	-80
2.32500	-77
2.33333	-75
2.34167	-72
2.35000	-69
2.35833	-66
2.36667	-63
2.37500	-59
2.38333	-56
2.39167	-52
2.40000	-48
2.40833	-43
2.41667	-38
2.42500	-33
2.43333	-28
2.44167	-23
2.45000	-17
2.45833	-11
2.46667	-5
2.47500	2
2.48333	10
2.49167	18
2.50000	27
2.50833	35
2.51667	45
2.52500	55
2.53333	66
2.54167	77
2.55000	89
2.55833	102
2.56667	115
2.57500	129
2.58333	143
2.59167	158
2.60000	174
2.60833	190
2.61667	208
2.62500	227
2.63333	247
2.64167	268
2.65000	290
2.65833	313
2.66667	338
2.67500	364
2.68333	391
2.69167	420
2.70000	450
2.70833	481
2.71667	513
2.72500	548
2.73333	584
2.74167	622
2.75000	662
2.75833	705
2.76667	750
2.77500	797
2.78333	846
2.79167	899
2.80000	954
2.80833	1012
2.81667	1072
2.82500	1136
2.83333	1203
2.84167	1273
2.85000	1347
2.85833	1425
2.86667	1507
2.87500	1592
2.88333	1682
2.89167	1776
2.90000	1875
2.90833	1978
2.91667	2086
2.92500	2199
2.93333	2316
2.94167	2439
2.95000	2567
2.95833	2700
2.96667	2838
2.97500	2982
2.98333	3130
2.99167	3284
3.00000	3443
3.00833	3607
3.01667	3777
3.02500	3951
3.03333	4129
3.04167	4312
3.05000	4499
3.05833	4690
3.06667	4884
3.07500	5082
3.08333	5283
3.09167	5486
3.10000	5691
3.10833	5897
3.11667	6103
3.12500	6310
3.13333	6516
3.14167	6721
3.15000	6924
3.15833	7125
3.16667	7323
3.17500	7516
3.18333	7705
3.19167	7889
3.20000	8067
3.20833	8238
3.21667	8402
3.22500	8557
3.23333	8705
3.24167	8842
3.25000	8970
3.25833	9088
3.26667	9194
3.27500	9289
3.28333	9372
3.29167	9444
3.30000	9502
3.30833	9549
3.31667	9582
3.32500	9602
3.33333	9610
3.34167	9604
3.35000	9585
3.35833	9554
3.36667	9510
3.37500	9453
3.38333	9384
3.39167	9304
3.40000	9212
3.40833	9108
3.41667	8995
3.42500	8871
3.43333	8738
3.44167	8595
3.45000	8445
3.45833	8286
3.46667	8120
3.47500	7948
3.48333	7770
3.49167	7586
3.50000	7398
3.50833	7205
3.51667	7010
3.52500	6811
3.53333	6611
3.54167	6409
3.55000	6206
3.55833	6003
3.56667	5800
3.57500	5598
3.58333	5397
3.59167	5198
3.60000	5000
3.60833	4805
3.61667	4613
3.62500	4425
3.63333	4240
3.64167	4058
3.65000	3882
3.65833	3709
3.66667	3541
3.67500	3377
3.68333	3217
3.69167	3063
3.70000	2914
3.70833	2770
3.71667	2631
3.72500	2498
3.73333	2369
3.74167	2245
3.75000	2127
3.75833	2013
3.76667	1904
3.77500	1800
3.78333	1701
3.79167	1606
3.80000	1516
3.80833	1430
3.81667	1348
3.82500	1271
3.83333	1198
3.84167	1128
3.85000	1062
3.85833	1000
3.86667	941
3.87500	886
3.88333	834
3.89167	784
3.90000	738
3.90833	695
3.91667	653
3.92500	614
3.93333	578
3.94167	544
3.95000	511
3.95833	481
3.96667	452
3.97500	426
3.98333	401
3.99167	378
4.00000	356
4.00833	335
4.01667	315
4.02500	296
4.03333	279
4.04167	262
4.05000	246
4.05833	232
4.06667	218
4.07500	205
4.08333	193
4.09167	181
4.10000	170
4.10833	159
4.11667	149
4.12500	139
4.13333	130
4.14167	121
4.15000	112
4.15833	104
4.16667	95
4.17500	88
4.18333	80
4.19167	73
4.20000	66
4.20833	60
4.21667	53
4.22500	47
4.23333	40
4.24167	35
4.25000	29
4.25833	23
4.26667	17
4.27500	12
4.28333	6
4.29167	1
4.30000	-4
4.30833	-9
4.31667	-14
4.32500	-19
4.33333	-23
4.34167	-28
4.35000	-32
4.35833	-36
4.36667	-40
4.37500	-44
4.38333	-48
4.39167	-51
4.40000	-55
4.40833	-58
4.41667	-61
4.42500	-64
4.43333	-67
4.44167	-70
4.45000	-73
4.45833	-75
4.46667	-78
4.47500	-80
4.48333	-83
4.49167	-85
4.50000	-87
4.50833	-89
4.51667	-91
4.52500	-92
4.53333	-94
4.54167	-95
4.55000	-96
4.55833	-98
4.56667	-99
4.57500	-100
4.58333	-101
4.59167	-102
4.60000	-102
4.60833	-103
4.61667	-103
4.62500	-104
4.63333	-104
4.64167	-105
4.65000	-105
4.65833	-105
4.66667	-106
4.67500	-106
4.68333	-107
4.69167	-107
4.70000	-107
4.70833	-106
4.71667	-106
4.72500	-105
4.73333	-105
4.74167	-105
4.75000	-105
4.75833	-105
4.76667	-105
4.77500	-105
4.78333	-105
4.79167	-105
4.80000	-105
4.80833	-105
4.81667	-105
4.82500	-104
4.83333	-104
4.84167	-104
4.85000	-104
4.85833	-103
4.86667	-103
4.87500	-102
4.88333	-102
4.89167	-101
4.90000	-101
4.90833	-101
4.91667	-101
4.92500	-101
4.93333	-101
4.94167	-101
4.95000	-100
4.95833	-101
4.96667	-101
4.97500	-100
4.98333	-100
4.99167	-100
5.00000	-100
5.00833	-100
5.01667	-99
5.02500	-99
5.03333	-99
5.04167	-98
5.05000	-98
5.05833	-98
5.06667	-98
5.07500	-98
5.08333	-98
5.09167	-99
5.10000	-99
5.10833	-99
5.11667	-99
5.12500	-100
5.13333	-100
5.14167	-100
5.15000	-100
5.15833	-100
5.16667	-100
5.17500	-100
5.18333	-100
5.19167	-100
5.20000	-100
5.20833	-100
5.21667	-101
5.22500	-101
5.23333	-101
5.24167	-101
5.25000	-101
5.25833	-102
5.26667	-102
5.27500	-102
5.28333	-102
5.29167	-103
5.30000	-103
5.30833	-103
5.31667	-103
5.32500	-104
5.33333	-104
5.34167	-104
5.35000	-105
5.35833	-105
5.36667	-105
5.37500	-106
5.38333	-106
5.39167	-106
5.40000	-107
5.40833	-108
5.41667	-108
5.42500	-109
5.43333	-109
5.44167	-109
5.45000	-109
5.45833	-110
5.46667	-110
5.47500	-110
5.48333	-110
5.49167	-111
5.50000	-111
5.50833	-111
5.51667	-112
5.52500	-112
5.53333	-113
5.54167	-113
5.55000	-113
5.55833	-114
5.56667	-114
5.57500	-114
5.58333	-114
5.59167	-115
5.60000	-115
5.60833	-116
5.61667	-116
5.62500	-116
5.63333	-116
5.64167	-116
5.65000	-117
5.65833	-117
5.66667	-118
5.67500	-118
5.68333	-119
5.69167	-119
5.70000	-119
5.70833	-119
5.71667	-119
5.72500	-119
5.73333	-120
5.74167	-120
5.75000	-120
5.75833	-120
5.76667	-121
5.77500	-121
5.78333	-121
5.79167	-121
5.80000	-121
5.80833	-122
5.81667	-122
5.82500	-122
5.83333	-122
5.84167	-122
5.85000	-122
5.85833	-123
5.86667	-123
5.87500	-123
5.88333	-123
5.89167	-123
5.90000	-124
5.90833	-124
5.91667	-124
5.92500	-124
5.93333	-124
5.94167	-124
5.95000	-124
5.95833	-124
5.96667	-124
5.97500	-123
5.98333	-123
5.99167	-123
6.00000	-123
6.00833	-124
6.01667	-124
6.02500	-124
6.03333	-124
6.04167	-124
6.05000	-124
6.05833	-124
6.06667	-123
6.07500	-123
6.08333	-123
6.09167	-123
6.10000	-122
6.10833	-122
6.11667	-121
6.12500	-121
6.13333	-121
6.14167	-121
6.15000	-121
6.15833	-121
6.16667	-121
6.17500	-121
6.18333	-121
6.19167	-120
6.20000	-120
6.20833	-120
6.21667	-120
6.22500	-120
6.23333	-119
6.24167	-119
6.25000	-119
6.25833	-119
6.26667	-119
6.27500	-119
6.28333	-119
6.29167	-119
6.30000	-118
6.30833	-118
6.31667	-118
6.32500	-118
6.33333	-118
6.34167	-118
6.35000	-118
6.35833	-118
6.36667	-118
6.37500	-118
6.38333	-118
6.39167	-119
6.40000	-119
6.40833	-118
6.41667	-118
6.42500	-118
6.43333	-118
6.44167	-118
6.45000	-118
6.45833	-119
6.46667	-119
6.47500	-119
6.48333	-119
6.49167	-120
6.50000	-120
6.50833	-120
6.51667	-120
6.52500	-120
6.53333	-120
6.54167	-120
6.55000	-120
6.55833	-120
6.56667	-120
6.57500	-120
6.58333	-120
6.59167	-120
6.60000	-120
6.60833	-120
6.61667	-121
6.62500	-121
6.63333	-121
6.64167	-121
6.65000	-121
6.65833	-121
6.66667	-121
6.67500	-121
6.68333	-121
6.69167	-121
6.70000	-120
6.70833	-121
6.71667	-121
6.72500	-121
6.73333	-121
6.74167	-120
6.75000	-121
6.75833	-121
6.76667	-121
6.77500	-121
6.78333	-120
6.79167	-120
6.80000	-120
6.80833	-120
6.81667	-120
6.82500	-120
6.83333	-120
6.84167	-120
6.85000	-120
6.85833	-120
6.86667	-120
6.87500	-120
6.88333	-120
6.89167	-121
6.90000	-121
6.90833	-121
6.91667	-121
6.92500	-121
6.93333	-121
6.94167	-121
6.95000	-120
6.95833	-120
6.96667	-120
6.97500	-119
6.98333	-119
6.99167	-120
7.00000	-120
7.00833	-119
7.01667	-119
7.02500	-120
7.03333	-119
7.04167	-119
7.05000	-119
7.05833	-118
7.06667	-117
7.07500	-116
7.08333	-115
7.09167	-113
7.10000	-111
7.10833	-107
7.11667	-103
7.12500	-98
7.13333	-92
7.14167	-84
7.15000	-75
7.15833	-63
7.16667	-50
7.17500	-35
7.18333	-19
7.19167	0
7.20000	21
7.20833	44
7.21667	69
7.22500	96
7.23333	124
7.24167	154
7.25000	184
7.25833	214
7.26667	243
7.27500	269
7.28333	292
7.29167	309
7.30000	318
7.30833	316
7.31667	304
7.32500	280
7.33333	246
7.34167	206
7.35000	168
7.35833	139
7.36667	135
7.37500	170
7.38333	264
7.39167	437
7.40000	709
7.40833	1101
7.41667	1631
7.42500	2313
7.43333	3159
7.44167	4173
7.45000	5353
7.45833	6688
7.46667	8159
7.47500	9738
7.48333	11385
7.49167	13052
7.50000	14682
7.50833	16211
7.51667	17575
7.52500	18711
7.53333	19564
7.54167	20094
7.55000	20279
7.55833	20119
7.56667	19631
7.57500	18854
7.58333	17838
7.59167	16642
7.60000	15328
7.60833	13955
7.61667	12578
7.62500	11240
7.63333	9975
7.64167	8807
7.65000	7749
7.65833	6807
7.66667	5981
7.67500	5263
7.68333	4646
7.69167	4119
7.70000	3670
7.70833	3290
7.71667	2966
7.72500	2691
7.73333	2455
7.74167	2252
7.75000	2077
7.75833	1924
7.76667	1790
7.77500	1671
7.78333	1564
7.79167	1469
7.80000	1383
7.80833	1304
7.81667	1232
7.82500	1165
7.83333	1101
7.84167	1041
7.85000	984
7.85833	929
7.86667	877
7.87500	827
7.88333	778
7.89167	732
7.90000	688
7.90833	646
7.91667	606
7.92500	569
7.93333	534
7.94167	503
7.95000	474
7.95833	449
7.96667	426
7.97500	406
7.98333	390
7.99167	375
8.00000	364
8.00833	355
8.01667	347
8.02500	341
8.03333	336
8.04167	331
8.05000	327
8.05833	322
8.06667	317
8.07500	312
8.08333	306
8.09167	298
8.10000	291
8.10833	282
8.11667	273
8.12500	263
8.13333	253
8.14167	242
8.15000	232
8.15833	221
8.16667	211
8.17500	201
8.18333	192
8.19167	183
8.20000	174
8.20833	166
8.21667	159
8.22500	152
8.23333	146
8.24167	140
8.25000	135
8.25833	130
8.26667	126
8.27500	122
8.28333	119
8.29167	117
8.30000	115
8.30833	113
8.31667	112
8.32500	111
8.33333	110
8.34167	109
8.35000	108
8.35833	107
8.36667	106
8.37500	105
8.38333	104
8.39167	103
8.40000	102
8.40833	102
8.41667	101
8.42500	100
8.43333	99
8.44167	97
8.45000	96
8.45833	95
8.46667	94
8.47500	93
8.48333	92
8.49167	90
8.50000	89
8.50833	88
8.51667	86
8.52500	85
8.53333	83
8.54167	81
8.55000	80
8.55833	78
8.56667	77
8.57500	76
8.58333	75
8.59167	75
8.60000	76
8.60833	76
8.61667	77
8.62500	79
8.63333	82
8.64167	85
8.65000	89
8.65833	94
8.66667	101
8.67500	108
8.68333	116
8.69167	126
8.70000	136
8.70833	147
8.71667	159
8.72500	171
8.73333	183
8.74167	196
8.75000	208
8.75833	221
8.76667	232
8.77500	242
8.78333	251
8.79167	259
8.80000	267
8.80833	273
8.81667	279
8.82500	284
8.83333	289
8.84167	294
8.85000	299
8.85833	305
8.86667	313
8.87500	323
8.88333	336
8.89167	353
8.90000	376
8.90833	403
8.91667	438
8.92500	481
8.93333	532
8.94167	593
8.95000	663
8.95833	743
8.96667	834
8.97500	933
8.98333	1041
8.99167	1157
9.00000	1279
9.00833	1405
9.01667	1533
9.02500	1660
9.03333	1785
9.04167	1903
9.05000	2013
9.05833	2113
9.06667	2200
9.07500	2272
9.08333	2328
9.09167	2366
9.10000	2386
9.10833	2389
9.11667	2375
9.12500	2344
9.13333	2298
9.14167	2238
9.15000	2166
9.15833	2085
9.16667	1995
9.17500	1899
9.18333	1799
9.19167	1696
9.20000	1593
9.20833	1491
9.21667	1391
9.22500	1294
9.23333	1202
9.24167	1115
9.25000	1033
9.25833	957
9.26667	887
9.27500	822
9.28333	763
9.29167	710
9.30000	663
9.30833	620
9.31667	583
9.32500	550
9.33333	522
9.34167	497
9.35000	477
9.35833	461
9.36667	448
9.37500	439
9.38333	434
9.39167	432
9.40000	435
9.40833	443
9.41667	456
9.42500	476
9.43333	504
9.44167	540
9.45000	587
9.45833	648
9.46667	724
9.47500	819
9.48333	937
9.49167	1081
9.50000	1258
9.50833	1471
9.51667	1726
9.52500	2029
9.53333	2386
9.54167	2800
9.55000	3277
9.55833	3819
9.56667	4429
9.57500	5106
9.58333	5850
9.59167	6658
9.60000	7522
9.60833	8438
9.61667	9394
9.62500	10379
9.63333	11378
9.64167	12378
9.65000	13364
9.65833	14318
9.66667	15226
9.67500	16074
9.68333	16847
9.69167	17534
9.70000	18125
9.70833	18614
9.71667	18997
9.72500	19272
9.73333	19441
9.74167	19508
9.75000	19480
9.75833	19367
9.76667	19178
9.77500	18925
9.78333	18621
9.79167	18278
9.80000	17910
9.80833	17530
9.81667	17148
9.82500	16777
9.83333	16427
9.84167	16105
9.85000	15819
9.85833	15575
9.86667	15377
9.87500	15230
9.88333	15134
9.89167	15091
9.90000	15102
9.90833	15165
9.91667	15281
9.92500	15446
9.93333	15659
9.94167	15916
9.95000	16216
9.95833	16555
9.96667	16930
9.97500	17338
9.98333	17776
9.99167	18240
10.00000	18727
10.00833	19234
10.01667	19757
10.02500	20293
10.03333	20838
10.04167	21386
10.05000	21931
10.05833	22462
10.06667	22963
10.07500	23412
10.08333	23780
10.09167	24031
10.10000	24126
10.10833	24026
10.11667	23697
10.12500	23118
10.13333	22284
10.14167	21208
10.15000	19923
10.15833	18474
10.16667	16917
10.17500	15309
10.18333	13706
10.19167	12154
10.20000	10691
10.20833	9343
10.21667	8123
10.22500	7040
10.23333	6090
10.24167	5267
10.25000	4560
10.25833	3958
10.26667	3449
10.27500	3019
10.28333	2658
10.29167	2354
10.30000	2098
10.30833	1881
10.31667	1698
10.32500	1541
10.33333	1407
10.34167	1290
10.35000	1189
10.35833	1100
10.36667	1021
10.37500	950
10.38333	886
10.39167	828
10.40000	775
10.40833	726
10.41667	681
10.42500	639
10.43333	601
10.44167	565
10.45000	532
10.45833	502
10.46667	475
10.47500	450
10.48333	428
10.49167	408
10.50000	390
10.50833	374
10.51667	361
10.52500	349
10.53333	340
10.54167	332
10.55000	326
10.55833	321
10.56667	317
10.57500	315
10.58333	313
10.59167	311
10.60000	310
10.60833	309
10.61667	307
10.62500	305
10.63333	303
10.64167	299
10.65000	295
10.65833	289
10.66667	281
10.67500	273
10.68333	264
10.69167	254
10.70000	243
10.70833	232
10.71667	220
10.72500	208
10.73333	196
10.74167	184
10.75000	172
10.75833	161
10.76667	149
10.77500	139
10.78333	129
10.79167	119
10.80000	110
10.80833	102
10.81667	95
10.82500	88
10.83333	82
10.84167	77
10.85000	73
10.85833	69
10.86667	66
10.87500	63
10.88333	61
10.89167	59
10.90000	57
10.90833	56
10.91667	54
10.92500	53
10.93333	51
10.94167	50
10.95000	48
10.95833	46
10.96667	45
10.97500	43
10.98333	42
10.99167	40
11.00000	39
11.00833	38
11.01667	36
11.02500	35
11.03333	34
11.04167	32
11.05000	30
11.05833	29
11.06667	29
11.07500	28
11.08333	28
11.09167	29
11.10000	29
11.10833	30
11.11667	31
11.12500	32
11.13333	33
11.14167	35
11.15000	36
11.15833	38
11.16667	41
11.17500	43
11.18333	46
11.19167	49
11.20000	51
11.20833	55
11.21667	59
11.22500	63
11.23333	67
11.24167	71
11.25000	75
11.25833	78
11.26667	82
11.27500	86
11.28333	89
11.29167	92
11.30000	96
11.30833	99
11.31667	102
11.32500	105
11.33333	108
11.34167	109
11.35000	111
11.35833	112
11.36667	112
11.37500	113
11.38333	112
11.39167	111
11.40000	109
11.40833	107
11.41667	105
11.42500	103
11.43333	99
11.44167	96
11.45000	92
11.45833	88
11.46667	84
11.47500	80
11.48333	76
11.49167	72
11.50000	68
11.50833	64
11.51667	61
11.52500	57
11.53333	54
11.54167	51
11.55000	48
11.55833	45
11.56667	43
11.57500	41
11.58333	39
11.59167	37
11.60000	35
11.60833	34
11.61667	32
11.62500	31
11.63333	30
11.64167	30
11.65000	29
11.65833	28
11.66667	27
11.67500	27
11.68333	27
11.69167	27
11.70000	27
11.70833	27
11.71667	27
11.72500	27
11.73333	27
11.74167	27
11.75000	28
11.75833	28
11.76667	28
11.77500	28
11.78333	28
11.79167	28
11.80000	28
11.80833	27
11.81667	27
11.82500	26
11.83333	24
11.84167	23
11.85000	21
11.85833	20
11.86667	18
11.87500	16
11.88333	14
11.89167	12
11.90000	10
11.90833	8
11.91667	7
11.92500	5
11.93333	3
11.94167	2
11.95000	1
11.95833	-0
11.96667	-2
11.97500	-3
11.98333	-4
11.99167	-5
12.00000	-5
12.00833	-6
12.01667	-6
12.02500	-5
12.03333	-4
12.04167	-3
12.05000	-2
12.05833	-1
12.06667	1
12.07500	2
12.08333	3
12.09167	5
12.10000	6
12.10833	8
12.11667	9
12.12500	11
12.13333	12
12.14167	13
12.15000	14
12.15833	14
12.16667	15
12.17500	16
12.18333	16
12.19167	16
12.20000	16
12.20833	16
12.21667	16
12.22500	16
12.23333	16
12.24167	15
12.25000	14
12.25833	14
12.26667	13
12.27500	12
12.28333	11
12.29167	10
12.30000	8
12.30833	7
12.31667	5
12.32500	3
12.33333	1
12.34167	-1
12.35000	-3
12.35833	-5
12.36667	-7
12.37500	-10
12.38333	-12
12.39167	-14
12.40000	-16
12.40833	-18
12.41667	-20
12.42500	-23
12.43333	-25
12.44167	-26
12.45000	-27
12.45833	-29
12.46667	-31
12.47500	-32
12.48333	-33
12.49167	-35
12.50000	-36
12.50833	-37
12.51667	-37
12.52500	-38
12.53333	-39
12.54167	-39
12.55000	-39
12.55833	-39
12.56667	-39
12.57500	-39
12.58333	-39
12.59167	-39
12.60000	-39
12.60833	-39
12.61667	-38
12.62500	-38
12.63333	-37
12.64167	-37
12.65000	-36
12.65833	-36
12.66667	-35
12.67500	-35
12.68333	-35
12.69167	-34
12.70000	-34
12.70833	-33
12.71667	-32
12.72500	-31
12.73333	-30
12.74167	-28
12.75000	-27
12.75833	-26
12.76667	-25
12.77500	-25
12.78333	-24
12.79167	-23
12.80000	-23
12.80833	-22
12.81667	-22
12.82500	-21
12.83333	-21
12.84167	-20
12.85000	-18
12.85833	-17
12.86667	-16
12.87500	-15
12.88333	-13
12.89167	-12
12.90000	-10
12.90833	-8
12.91667	-6
12.92500	-4
12.93333	-2
12.94167	0
12.95000	3
12.95833	6
12.96667	9
12.97500	12
12.98333	15
12.99167	18
13.00000	21
13.00833	25
13.01667	27
13.02500	30
13.03333	33
13.04167	35
13.05000	37
13.05833	40
13.06667	42
13.07500	43
13.08333	44
13.09167	45
13.10000	45
13.10833	45
13.11667	45
13.12500	44
13.13333	43
13.14167	41
13.15000	40
13.15833	38
13.16667	36
13.17500	34
13.18333	32
13.19167	30
13.20000	29
13.20833	26
13.21667	25
13.22500	23
13.23333	21
13.24167	20
13.25000	18
13.25833	17
13.26667	16
13.27500	15
13.28333	14
13.29167	13
13.30000	13
13.30833	13
13.31667	12
13.32500	12
13.33333	12
13.34167	12
13.35000	13
13.35833	13
13.36667	13
13.37500	13
13.38333	14
13.39167	15
13.40000	15
13.40833	16
13.41667	17
13.42500	18
13.43333	19
13.44167	20
13.45000	22
13.45833	23
13.46667	25
13.47500	26
13.48333	28
13.49167	30
13.50000	32
13.50833	35
13.51667	37
13.52500	40
13.53333	44
13.54167	48
13.55000	52
13.55833	57
13.56667	62
13.57500	67
13.58333	74
13.59167	81
13.60000	90
13.60833	99
13.61667	109
13.62500	120
13.63333	132
13.64167	145
13.65000	159
13.65833	173
13.66667	188
13.67500	203
13.68333	218
13.69167	233
13.70000	249
13.70833	264
13.71667	278
13.72500	292
13.73333	305
13.74167	316
13.75000	327
13.75833	337
13.76667	345
13.77500	353
13.78333	359
13.79167	365
13.80000	369
13.80833	372
13.81667	374
13.82500	376
13.83333	377
13.84167	378
13.85000	380
13.85833	381
13.86667	382
13.87500	384
13.88333	386
13.89167	388
13.90000	391
13.90833	393
13.91667	396
13.92500	399
13.93333	402
13.94167	404
13.95000	406
13.95833	408
13.96667	410
13.97500	411
13.98333	411
13.99167	410
14.00000	408
14.00833	405
14.01667	401
14.02500	396
14.03333	390
14.04167	384
14.05000	376
14.05833	368
14.06667	360
14.07500	351
14.08333	341
14.09167	331
14.10000	321
14.10833	312
14.11667	302
14.12500	292
14.13333	282
14.14167	273
14.15000	264
14.15833	255
14.16667	248
14.17500	241
14.18333	234
14.19167	228
14.20000	223
14.20833	218
14.21667	213
14.22500	209
14.23333	205
14.24167	202
14.25000	199
14.25833	196
14.26667	194
14.27500	192
14.28333	191
14.29167	190
14.30000	189
14.30833	188
14.31667	188
14.32500	188
14.33333	188
14.34167	188
14.35000	189
14.35833	190
14.36667	191
14.37500	191
14.38333	192
14.39167	193
14.40000	194
14.40833	195
14.41667	197
14.42500	198
14.43333	200
14.44167	202
14.45000	203
14.45833	204
14.46667	205
14.47500	207
14.48333	207
14.49167	208
14.50000	209
14.50833	209
14.51667	210
14.52500	210
14.53333	210
14.54167	211
14.55000	211
14.55833	211
14.56667	211
14.57500	211
14.58333	211
14.59167	211
14.60000	211
14.60833	210
14.61667	209
14.62500	208
14.63333	208
14.64167	207
14.65000	206
14.65833	206
14.66667	205
14.67500	203
14.68333	202
14.69167	201
14.70000	200
14.70833	198
14.71667	197
14.72500	196
14.73333	195
14.74167	194
14.75000	193
14.75833	191
14.76667	190
14.77500	189
14.78333	188
14.79167	187
14.80000	186
14.80833	184
14.81667	183
14.82500	182
14.83333	181
14.84167	181
14.85000	180
14.85833	179
14.86667	178
14.87500	177
14.88333	176
14.89167	176
14.90000	175
14.90833	174
14.91667	174
14.92500	173
14.93333	173
14.94167	173
14.95000	173
14.95833	172
14.96667	172
14.97500	171
14.98333	171
14.99167	171
15.00000	172
15.00833	172
15.01667	173
15.02500	174
15.03333	175
15.04167	177
15.05000	178
15.05833	181
15.06667	183
15.07500	186
15.08333	189
15.09167	193
15.10000	198
15.10833	203
15.11667	209
15.12500	216
15.13333	223
15.14167	230
15.15000	238
15.15833	246
15.16667	255
15.17500	265
15.18333	275
15.19167	284
15.20000	294
15.20833	304
15.21667	314
15.22500	324
15.23333	334
15.24167	342
15.25000	350
15.25833	357
15.26667	362
15.27500	367
15.28333	370
15.29167	373
15.30000	374
15.30833	373
15.31667	371
15.32500	368
15.33333	364
15.34167	357
15.35000	350
15.35833	342
15.36667	333
15.37500	323
15.38333	312
15.39167	301
15.40000	289
15.40833	277
15.41667	265
15.42500	253
15.43333	241
15.44167	229
15.45000	218
15.45833	206
15.46667	196
15.47500	185
15.48333	175
15.49167	165
15.50000	156
15.50833	146
15.51667	138
15.52500	130
15.53333	122
15.54167	115
15.55000	108
15.55833	102
15.56667	96
15.57500	90
15.58333	85
15.59167	80
15.60000	76
15.60833	72
15.61667	69
15.62500	65
15.63333	61
15.64167	58
15.65000	55
15.65833	53
15.66667	51
15.67500	50
15.68333	48
15.69167	47
15.70000	46
15.70833	45
15.71667	44
15.72500	43
15.73333	43
15.74167	42
15.75000	42
15.75833	42
15.76667	41
15.77500	41
15.78333	41
15.79167	41
15.80000	41
15.80833	41
15.81667	41
15.82500	41
15.83333	41
15.84167	41
15.85000	41
15.85833	42
15.86667	43
15.87500	44
15.88333	45
15.89167	46
15.90000	47
15.90833	48
15.91667	50
15.92500	51
15.93333	54
15.94167	57
15.95000	60
15.95833	63
15.96667	67
15.97500	72
15.98333	77
15.99167	83
16.00000	90
16.00833	97
16.01667	105
16.02500	113
16.03333	121
16.04167	130
16.05000	140
16.05833	150
16.06667	160
16.07500	171
16.08333	181
16.09167	191
16.10000	200
16.10833	209
16.11667	218
16.12500	227
16.13333	234
16.14167	241
16.15000	246
16.15833	251
16.16667	255
16.17500	257
16.18333	258
16.19167	259
16.20000	258
16.20833	257
16.21667	255
16.22500	252
16.23333	248
16.24167	244
16.25000	239
16.25833	235
16.26667	230
16.27500	226
16.28333	221
16.29167	216
16.30000	212
16.30833	208
16.31667	205
16.32500	203
16.33333	200
16.34167	199
16.35000	199
16.35833	199
16.36667	201
16.37500	203
16.38333	207
16.39167	211
16.40000	217
16.40833	223
16.41667	231
16.42500	240
16.43333	250
16.44167	260
16.45000	272
16.45833	286
16.46667	301
16.47500	317
16.48333	335
16.49167	354
16.50000	374
16.50833	395
16.51667	417
16.52500	440
16.53333	463
16.54167	488
16.55000	513
16.55833	538
16.56667	563
16.57500	589
16.58333	615
16.59167	640
16.60000	664
16.60833	687
16.61667	708
16.62500	728
16.63333	745
16.64167	760
16.65000	773
16.65833	783
16.66667	791
16.67500	796
16.68333	797
16.69167	796
16.70000	792
16.70833	785
16.71667	775
16.72500	762
16.73333	747
16.74167	730
16.75000	711
16.75833	690
16.76667	667
16.77500	643
16.78333	619
16.79167	593
16.80000	567
16.80833	541
16.81667	514
16.82500	488
16.83333	463
16.84167	438
16.85000	413
16.85833	389
16.86667	366
16.87500	344
16.88333	324
16.89167	304
16.90000	286
16.90833	268
16.91667	252
16.92500	237
16.93333	222
16.94167	208
16.95000	195
16.95833	183
16.96667	172
16.97500	162
16.98333	153
16.99167	144
17.00000	136
17.00833	128
17.01667	121
17.02500	115
17.03333	109
17.04167	103
17.05000	98
17.05833	93
17.06667	89
17.07500	85
17.08333	81
17.09167	77
17.10000	73
17.10833	70
17.11667	68
17.12500	65
17.13333	62
17.14167	59
17.15000	57
17.15833	55
17.16667	53
17.17500	51
17.18333	49
17.19167	47
17.20000	46
17.20833	44
17.21667	43
17.22500	41
17.23333	40
17.24167	39
17.25000	38
17.25833	37
17.26667	36
17.27500	35
17.28333	34
17.29167	34
17.30000	33
17.30833	32
17.31667	31
17.32500	30
17.33333	29
17.34167	29
17.35000	29
17.35833	29
17.36667	29
17.37500	29
17.38333	29
17.39167	29
17.40000	28
17.40833	28
17.41667	28
17.42500	28
17.43333	28
17.44167	28
17.45000	28
17.45833	28
17.46667	29
17.47500	30
17.48333	30
17.49167	31
17.50000	32
17.50833	34
17.51667	35
17.52500	36
17.53333	38
17.54167	39
17.55000	41
17.55833	42
17.56667	44
17.57500	46
17.58333	48
17.59167	50
17.60000	52
17.60833	55
17.61667	58
17.62500	61
17.63333	65
17.64167	68
17.65000	73
17.65833	77
17.66667	83
17.67500	88
17.68333	94
17.69167	101
17.70000	108
17.70833	116
17.71667	125
17.72500	134
17.73333	145
17.74167	156
17.75000	168
17.75833	183
17.76667	198
17.77500	215
17.78333	233
17.79167	254
17.80000	276
17.80833	301
17.81667	328
17.82500	358
17.83333	391
17.84167	427
17.85000	467
17.85833	511
17.86667	559
17.87500	613
17.88333	672
17.89167	736
17.90000	806
17.90833	882
17.91667	966
17.92500	1056
17.93333	1154
17.94167	1259
17.95000	1373
17.95833	1494
17.96667	1623
17.97500	1759
17.98333	1901
17.99167	2051
18.00000	2206
18.00833	2366
18.01667	2530
18.02500	2697
18.03333	2866
18.04167	3034
18.05000	3202
18.05833	3366
18.06667	3526
18.07500	3680
18.08333	3826
18.09167	3963
18.10000	4089
18.10833	4202
18.11667	4301
18.12500	4386
18.13333	4455
18.14167	4508
18.15000	4543
18.15833	4561
18.16667	4562
18.17500	4545
18.18333	4512
18.19167	4462
18.20000	4397
18.20833	4318
18.21667	4225
18.22500	4120
18.23333	4004
18.24167	3879
18.25000	3745
18.25833	3605
18.26667	3460
18.27500	3312
18.28333	3162
18.29167	3010
18.30000	2859
18.30833	2709
18.31667	2561
18.32500	2416
18.33333	2276
18.34167	2139
18.35000	2009
18.35833	1883
18.36667	1763
18.37500	1650
18.38333	1542
18.39167	1441
18.40000	1345
18.40833	1254
18.41667	1170
18.42500	1092
18.43333	1019
18.44167	952
18.45000	889
18.45833	831
18.46667	777
18.47500	727
18.48333	682
18.49167	640
18.50000	602
18.50833	567
18.51667	534
18.52500	505
18.53333	478
18.54167	453
18.55000	430
18.55833	410
18.56667	391
18.57500	374
18.58333	359
18.59167	345
18.60000	333
18.60833	322
18.61667	312
18.62500	304
18.63333	297
18.64167	290
18.65000	285
18.65833	281
18.66667	278
18.67500	275
18.68333	274
18.69167	274
18.70000	275
18.70833	277
18.71667	279
18.72500	283
18.73333	287
18.74167	292
18.75000	298
18.75833	305
18.76667	312
18.77500	320
18.78333	328
18.79167	337
18.80000	346
18.80833	356
18.81667	366
18.82500	377
18.83333	387
18.84167	397
18.85000	407
18.85833	416
18.86667	426
18.87500	434
18.88333	443
18.89167	451
18.90000	458
18.90833	464
18.91667	469
18.92500	474
18.93333	478
18.94167	481
18.95000	483
18.95833	483
18.96667	483
18.97500	482
18.98333	479
18.99167	476
19.00000	471
19.00833	466
19.01667	461
19.02500	454
19.03333	446
19.04167	438
19.05000	430
19.05833	421
19.06667	412
19.07500	402
19.08333	392
19.09167	382
19.10000	372
19.10833	362
19.11667	352
19.12500	342
19.13333	333
19.14167	324
19.15000	314
19.15833	306
19.16667	297
19.17500	289
19.18333	281
19.19167	274
19.20000	267
19.20833	261
19.21667	255
19.22500	249
19.23333	244
19.24167	240
19.25000	236
19.25833	232
19.26667	228
19.27500	225
19.28333	222
19.29167	219
19.30000	217
19.30833	214
19.31667	213
19.32500	211
19.33333	210
19.34167	209
19.35000	208
19.35833	208
19.36667	208
19.37500	208
19.38333	208
19.39167	208
19.40000	208
19.40833	209
19.41667	210
19.42500	210
19.43333	211
19.44167	211
19.45000	211
19.45833	212
19.46667	212
19.47500	213
19.48333	214
19.49167	214
19.50000	216
19.50833	217
19.51667	218
19.52500	219
19.53333	220
19.54167	221
19.55000	222
19.55833	223
19.56667	223
19.57500	224
19.58333	224
19.59167	225
19.60000	227
19.60833	228
19.61667	229
19.62500	229
19.63333	230
19.64167	230
19.65000	231
19.65833	231
19.66667	232
19.67500	232
19.68333	233
19.69167	233
19.70000	234
19.70833	234
19.71667	235
19.72500	236
19.73333	236
19.74167	237
19.75000	237
19.75833	238
19.76667	239
19.77500	239
19.78333	240
19.79167	240
19.80000	241
19.80833	242
19.81667	243
19.82500	243
19.83333	244
19.84167	245
19.85000	245
19.85833	246
19.86667	246
19.87500	247
19.88333	247
19.89167	248
19.90000	249
19.90833	250
19.91667	251
19.92500	251
19.93333	252
19.94167	252
19.95000	253
19.95833	253
19.96667	254
19.97500	255
19.98333	256
19.99167	256
20.00000	257
20.00833	257
20.01667	258
20.02500	259
20.03333	259
20.04167	260
20.05000	261
20.05833	262
20.06667	262
20.07500	263
20.08333	264
20.09167	265
20.10000	266
20.10833	267
20.11667	268
20.12500	269
20.13333	270
20.14167	270
20.15000	271
20.15833	272
20.16667	273
20.17500	273
20.18333	274
20.19167	275
20.20000	275
20.20833	277
20.21667	278
20.22500	279
20.23333	280
20.24167	281
20.25000	283
20.25833	284
20.26667	286
20.27500	287
20.28333	289
20.29167	291
20.30000	293
20.30833	295
20.31667	296
20.32500	298
20.33333	300
20.34167	302
20.35000	304
20.35833	306
20.36667	309
20.37500	312
20.38333	314
20.39167	317
20.40000	320
20.40833	323
20.41667	326
20.42500	330
20.43333	333
20.44167	337
20.45000	341
20.45833	345
20.46667	350
20.47500	355
20.48333	360
20.49167	365
20.50000	371
20.50833	377
20.51667	383
20.52500	390
20.53333	397
20.54167	404
20.55000	412
20.55833	421
20.56667	430
20.57500	440
20.58333	451
20.59167	462
20.60000	474
20.60833	487
20.61667	501
20.62500	515
20.63333	531
20.64167	548
20.65000	566
20.65833	585
20.66667	606
20.67500	627
20.68333	650
20.69167	675
20.70000	701
20.70833	728
20.71667	757
20.72500	787
20.73333	818
20.74167	850
20.75000	884
20.75833	919
20.76667	955
20.77500	992
20.78333	1029
20.79167	1068
20.80000	1107
20.80833	1146
20.81667	1186
20.82500	1226
20.83333	1266
20.84167	1306
20.85000	1345
20.85833	1385
20.86667	1423
20.87500	1461
20.88333	1499
20.89167	1535
20.90000	1570
20.90833	1605
20.91667	1638
20.92500	1671
20.93333	1703
20.94167	1733
20.95000	1763
20.95833	1792
20.96667	1820
20.97500	1848
20.98333	1875
20.99167	1902
21.00000	1929
21.00833	1956
21.01667	1983
21.02500	2012
21.03333	2041
21.04167	2071
21.05000	2102
21.05833	2135
21.06667	2170
21.07500	2208
21.08333	2249
21.09167	2293
21.10000	2340
21.10833	2392
21.11667	2449
21.12500	2512
21.13333	2580
21.14167	2654
21.15000	2735
21.15833	2824
21.16667	2920
21.17500	3025
21.18333	3140
21.19167	3265
21.20000	3402
21.20833	3550
21.21667	3710
21.22500	3883
21.23333	4070
21.24167	4270
21.25000	4485
21.25833	4715
21.26667	4960
21.27500	5219
21.28333	5495
21.29167	5785
21.30000	6089
21.30833	6408
21.31667	6740
21.32500	7084
21.33333	7441
21.34167	7807
21.35000	8182
21.35833	8564
21.36667	8952
21.37500	9343
21.38333	9736
21.39167	10128
21.40000	10516
21.40833	10900
21.41667	11275
21.42500	11640
21.43333	11992
21.44167	12328
21.45000	12646
21.45833	12945
21.46667	13221
21.47500	13472
21.48333	13698
21.49167	13896
21.50000	14064
21.50833	14203
21.51667	14311
21.52500	14387
21.53333	14431
21.54167	14443
21.55000	14422
21.55833	14370
21.56667	14286
21.57500	14172
21.58333	14030
21.59167	13859
21.60000	13662
21.60833	13441
21.61667	13196
21.62500	12931
21.63333	12646
21.64167	12344
21.65000	12027
21.65833	11697
21.66667	11357
21.67500	11007
21.68333	10651
21.69167	10289
21.70000	9925
21.70833	9560
21.71667	9195
21.72500	8831
21.73333	8471
21.74167	8115
21.75000	7766
21.75833	7423
21.76667	7088
21.77500	6762
21.78333	6445
21.79167	6137
21.80000	5840
21.80833	5553
21.81667	5278
21.82500	5013
21.83333	4760
21.84167	4517
21.85000	4286
21.85833	4065
21.86667	3856
21.87500	3656
21.88333	3467
21.89167	3288
21.90000	3118
21.90833	2958
21.91667	2807
21.92500	2665
21.93333	2530
21.94167	2403
21.95000	2284
21.95833	2172
21.96667	2066
21.97500	1967
21.98333	1874
21.99167	1787
22.00000	1705
22.00833	1628
22.01667	1556
22.02500	1488
22.03333	1425
22.04167	1366
22.05000	1311
22.05833	1259
22.06667	1211
22.07500	1166
22.08333	1124
22.09167	1085
22.10000	1049
22.10833	1016
22.11667	985
22.12500	956
22.13333	930
22.14167	906
22.15000	883
22.15833	863
22.16667	845
22.17500	828
22.18333	813
22.19167	799
22.20000	786
22.20833	775
22.21667	765
22.22500	756
22.23333	748
22.24167	740
22.25000	734
22.25833	728
22.26667	723
22.27500	718
22.28333	714
22.29167	711
22.30000	708
22.30833	705
22.31667	702
22.32500	700
22.33333	697
22.34167	696
22.35000	694
22.35833	692
22.36667	690
22.37500	688
22.38333	686
22.39167	683
22.40000	681
22.40833	679
22.41667	676
22.42500	673
22.43333	670
22.44167	666
22.45000	662
22.45833	657
22.46667	652
22.47500	647
22.48333	642
22.49167	637
22.50000	632
22.50833	626
22.51667	620
22.52500	613
22.53333	607
22.54167	600
22.55000	593
22.55833	585
22.56667	578
22.57500	570
22.58333	562
22.59167	555
22.60000	547
22.60833	539
22.61667	531
22.62500	522
22.63333	514
22.64167	506
22.65000	498
22.65833	490
22.66667	482
22.67500	474
22.68333	466
22.69167	458
22.70000	451
22.70833	443
22.71667	436
22.72500	430
22.73333	424
22.74167	418
22.75000	412
22.75833	407
22.76667	402
22.77500	397
22.78333	393
22.79167	389
22.80000	385
22.80833	382
22.81667	379
22.82500	376
22.83333	374
22.84167	371
22.85000	370
22.85833	369
22.86667	368
22.87500	368
22.88333	367
22.89167	367
22.90000	367
22.90833	368
22.91667	369
22.92500	370
22.93333	371
22.94167	373
22.95000	374
22.95833	376
22.96667	379
22.97500	381
22.98333	384
22.99167	386
23.00000	389
23.00833	392
23.01667	395
23.02500	397
23.03333	400
23.04167	402
23.05000	405
23.05833	409
23.06667	412
23.07500	415
23.08333	417
23.09167	420
23.10000	422
23.10833	424
23.11667	426
23.12500	429
23.13333	430
23.14167	432
23.15000	434
23.15833	436
23.16667	438
23.17500	439
23.18333	441
23.19167	442
23.20000	443
23.20833	444
23.21667	444
23.22500	445
23.23333	445
23.24167	445
23.25000	445
23.25833	446
23.26667	446
23.27500	446
23.28333	445
23.29167	445
23.30000	445
23.30833	445
23.31667	445
23.32500	444
23.33333	444
23.34167	443
23.35000	442
23.35833	442
23.36667	441
23.37500	441
23.38333	440
23.39167	440
23.40000	439
23.40833	438
23.41667	438
23.42500	437
23.43333	437
23.44167	436
23.45000	436
23.45833	435
23.46667	434
23.47500	434
23.48333	433
23.49167	433
23.50000	432
23.50833	431
23.51667	431
23.52500	430
23.53333	429
23.54167	429
23.55000	428
23.55833	428
23.56667	427
23.57500	426
23.58333	425
23.59167	425
23.60000	424
23.60833	424
23.61667	423
23.62500	423
23.63333	423
23.64167	423
23.65000	422
23.65833	422
23.66667	422
23.67500	422
23.68333	421
23.69167	422
23.70000	422
23.70833	422
23.71667	422
23.72500	422
23.73333	422
23.74167	422
23.75000	422
23.75833	422
23.76667	422
23.77500	422
23.78333	422
23.79167	422
23.80000	422
23.80833	422
23.81667	422
23.82500	421
23.83333	421
23.84167	421
23.85000	420
23.85833	420
23.86667	420
23.87500	420
23.88333	420
23.89167	420
23.90000	420
23.90833	420
23.91667	421
23.92500	421
23.93333	421
23.94167	421
23.95000	421
23.95833	420
23.96667	420
23.97500	420
23.98333	420
23.99167	420
24.00000	420
24.00833	420
24.01667	420
24.02500	419
24.03333	419
24.04167	419
24.05000	419
24.05833	418
24.06667	418
24.07500	418
24.08333	417
24.09167	417
24.10000	417
24.10833	416
24.11667	415
24.12500	414
24.13333	414
24.14167	413
24.15000	413
24.15833	412
24.16667	411
24.17500	410
24.18333	409
24.19167	407
24.20000	406
24.20833	404
24.21667	403
24.22500	401
24.23333	399
24.24167	397
24.25000	396
24.25833	393
24.26667	391
24.27500	389
24.28333	386
24.29167	384
24.30000	382
24.30833	380
24.31667	378
24.32500	376
24.33333	373
24.34167	371
24.35000	369
24.35833	367
24.36667	366
24.37500	364
24.38333	362
24.39167	360
24.40000	358
24.40833	356
24.41667	355
24.42500	353
24.43333	351
24.44167	349
24.45000	347
24.45833	345
24.46667	344
24.47500	342
24.48333	341
24.49167	339
24.50000	338
24.50833	337
24.51667	336
24.52500	334
24.53333	333
24.54167	332
24.55000	331
24.55833	331
24.56667	330
24.57500	330
24.58333	329
24.59167	329
24.60000	329
24.60833	329
24.61667	328
24.62500	328
24.63333	327
24.64167	327
24.65000	327
24.65833	327
24.66667	327
24.67500	327
24.68333	327
24.69167	327
24.70000	327
24.70833	326
24.71667	326
24.72500	326
24.73333	326
24.74167	326
24.75000	326
24.75833	326
24.76667	326
24.77500	326
24.78333	326
24.79167	326
24.80000	326
24.80833	326
24.81667	326
24.82500	326
24.83333	326
24.84167	326
24.85000	326
24.85833	326
24.86667	326
24.87500	326
24.88333	326
24.89167	326
24.90000	325
24.90833	325
24.91667	325
24.92500	325
24.93333	324
24.94167	324
24.95000	324
24.95833	323
24.96667	323
24.97500	323
24.98333	322
24.99167	322
25.00000	322
25.00833	322
25.01667	321
25.02500	321
25.03333	321
25.04167	321
25.05000	320
25.05833	320
25.06667	319
25.07500	318
25.08333	318
25.09167	318
25.10000	317
25.10833	317
25.11667	317
25.12500	316
25.13333	316
25.14167	316
25.15000	315
25.15833	315
25.16667	315
25.17500	314
25.18333	314
25.19167	314
25.20000	314
25.20833	313
25.21667	312
25.22500	312
25.23333	311
25.24167	311
25.25000	311
25.25833	311
25.26667	310
25.27500	310
25.28333	310
25.29167	310
25.30000	309
25.30833	309
25.31667	309
25.32500	309
25.33333	308
25.34167	308
25.35000	308
25.35833	308
25.36667	307
25.37500	307
25.38333	306
25.39167	306
25.40000	305
25.40833	305
25.41667	305
25.42500	306
25.43333	306
25.44167	306
25.45000	305
25.45833	305
25.46667	305
25.47500	305
25.48333	305
25.49167	305
25.50000	305
25.50833	305
25.51667	305
25.52500	305
25.53333	304
25.54167	304
25.55000	304
25.55833	305
25.56667	305
25.57500	305
25.58333	305
25.59167	305
25.60000	305
25.60833	306
25.61667	306
25.62500	307
25.63333	307
25.64167	308
25.65000	308
25.65833	309
25.66667	309
25.67500	309
25.68333	310
25.69167	310
25.70000	310
25.70833	311
25.71667	312
25.72500	312
25.73333	313
25.74167	313
25.75000	313
25.75833	314
25.76667	314
25.77500	315
25.78333	315
25.79167	316
25.80000	316
25.80833	317
25.81667	318
25.82500	318
25.83333	319
25.84167	319
25.85000	320
25.85833	321
25.86667	322
25.87500	322
25.88333	324
25.89167	325
25.90000	326
25.90833	327
25.91667	329
25.92500	330
25.93333	331
25.94167	332
25.95000	334
25.95833	335
25.96667	337
25.97500	340
25.98333	342
25.99167	344
26.00000	347
26.00833	350
26.01667	353
26.02500	356
26.03333	359
26.04167	363
26.05000	367
26.05833	371
26.06667	375
26.07500	380
26.08333	385
26.09167	391
26.10000	396
26.10833	403
26.11667	410
26.12500	417
26.13333	425
26.14167	433
26.15000	442
26.15833	451
26.16667	460
26.17500	471
26.18333	481
26.19167	493
26.20000	505
26.20833	518
26.21667	532
26.22500	547
26.23333	562
26.24167	577
26.25000	594
26.25833	611
26.26667	629
26.27500	648
26.28333	667
26.29167	688
26.30000	709
26.30833	731
26.31667	753
26.32500	776
26.33333	799
26.34167	823
26.35000	847
26.35833	872
26.36667	896
26.37500	921
26.38333	945
26.39167	969
26.40000	994
26.40833	1017
26.41667	1041
26.42500	1065
26.43333	1087
26.44167	1109
26.45000	1130
26.45833	1150
26.46667	1169
26.47500	1186
26.48333	1203
26.49167	1217
26.50000	1231
26.50833	1242
26.51667	1252
26.52500	1261
26.53333	1267
26.54167	1272
26.55000	1274
26.55833	1275
26.56667	1274
26.57500	1271
26.58333	1266
26.59167	1259
26.60000	1251
26.60833	1241
26.61667	1229
26.62500	1215
26.63333	1200
26.64167	1184
26.65000	1166
26.65833	1147
26.66667	1127
26.67500	1106
26.68333	1083
26.69167	1060
26.70000	1036
26.70833	1011
26.71667	985
26.72500	960
26.73333	935
26.74167	909
26.75000	883
26.75833	857
26.76667	832
26.77500	806
26.78333	781
26.79167	757
26.80000	732
26.80833	709
26.81667	685
26.82500	662
26.83333	640
26.84167	618
26.85000	597
26.85833	577
26.86667	558
26.87500	539
26.88333	521
26.89167	503
26.90000	486
26.90833	470
26.91667	455
26.92500	440
26.93333	427
26.94167	413
26.95000	400
26.95833	389
26.96667	377
26.97500	367
26.98333	356
26.99167	347
27.00000	338
27.00833	329
27.01667	321
27.02500	313
27.03333	305
27.04167	298
27.05000	291
27.05833	285
27.06667	279
27.07500	274
27.08333	268
27.09167	263
27.10000	257
27.10833	253
27.11667	248
27.12500	244
27.13333	240
27.14167	236
27.15000	232
27.15833	228
27.16667	225
27.17500	221
27.18333	218
27.19167	215
27.20000	213
27.20833	210
27.21667	207
27.22500	204
27.23333	201
27.24167	199
27.25000	196
27.25833	194
27.26667	191
27.27500	189
27.28333	187
27.29167	185
27.30000	183
27.30833	181
27.31667	179
27.32500	177
27.33333	175
27.34167	173
27.35000	171
27.35833	170
27.36667	169
27.37500	167
27.38333	166
27.39167	164
27.40000	163
27.40833	162
27.41667	160
27.42500	159
27.43333	157
27.44167	155
27.45000	154
27.45833	153
27.46667	152
27.47500	150
27.48333	149
27.49167	148
27.50000	148
27.50833	147
27.51667	145
27.52500	144
27.53333	143
27.54167	142
27.55000	140
27.55833	139
27.56667	138
27.57500	137
27.58333	136
27.59167	135
27.60000	134
27.60833	133
27.61667	132
27.62500	131
27.63333	130
27.64167	129
27.65000	128
27.65833	127
27.66667	126
27.67500	126
27.68333	125
27.69167	125
27.70000	124
27.70833	124
27.71667	123
27.72500	123
27.73333	122
27.74167	121
27.75000	120
27.75833	120
27.76667	119
27.77500	118
27.78333	117
27.79167	117
27.80000	116
27.80833	116
27.81667	115
27.82500	114
27.83333	113
27.84167	113
27.85000	113
27.85833	113
27.86667	112
27.87500	112
27.88333	111
27.89167	110
27.90000	110
27.90833	110
27.91667	109
27.92500	109
27.93333	108
27.94167	108
27.95000	107
27.95833	106
27.96667	106
27.97500	105
27.98333	105
27.99167	104
28.00000	104

