R.Time (min)	Intensity
0.00000	-43
0.00833	-43
0.01667	-0
0.02500	-1
0.03333	-2
0.04167	-2
0.05000	-3
0.05833	-4
0.06667	-5
0.07500	-5
0.08333	-6
0.09167	-6
0.10000	-6
0.10833	-6
0.11667	-7
0.12500	-7
0.13333	-7
0.14167	-8
0.15000	-8
0.15833	-9
0.16667	-9
0.17500	-10
0.18333	-11
0.19167	-12
0.20000	-13
0.20833	-13
0.21667	-14
0.22500	-14
0.23333	-15
0.24167	-15
0.25000	-16
0.25833	-16
0.26667	-17
0.27500	-18
0.28333	-19
0.29167	-19
0.30000	-19
0.30833	-20
0.31667	-20
0.32500	-21
0.33333	-21
0.34167	-22
0.35000	-23
0.35833	-23
0.36667	-24
0.37500	-25
0.38333	-25
0.39167	-26
0.40000	-27
0.40833	-28
0.41667	-29
0.42500	-30
0.43333	-30
0.44167	-31
0.45000	-32
0.45833	-33
0.46667	-33
0.47500	-34
0.48333	-34
0.49167	-35
0.50000	-35
0.50833	-36
0.51667	-36
0.52500	-37
0.53333	-38
0.54167	-38
0.55000	-39
0.55833	-40
0.56667	-40
0.57500	-41
0.58333	-42
0.59167	-43
0.60000	-43
0.60833	-44
0.61667	-45
0.62500	-45
0.63333	-46
0.64167	-47
0.65000	-47
0.65833	-47
0.66667	-48
0.67500	-49
0.68333	-49
0.69167	-50
0.70000	-51
0.70833	-51
0.71667	-51
0.72500	-52
0.73333	-52
0.74167	-52
0.75000	-53
0.75833	-53
0.76667	-54
0.77500	-54
0.78333	-55
0.79167	-55
0.80000	-56
0.80833	-56
0.81667	-57
0.82500	-58
0.83333	-58
0.84167	-59
0.85000	-59
0.85833	-59
0.86667	-59
0.87500	-60
0.88333	-60
0.89167	-61
0.90000	-61
0.90833	-62
0.91667	-62
0.92500	-63
0.93333	-64
0.94167	-64
0.95000	-64
0.95833	-65
0.96667	-65
0.97500	-66
0.98333	-66
0.99167	-67
1.00000	-68
1.00833	-68
1.01667	-68
1.02500	-69
1.03333	-69
1.04167	-69
1.05000	-70
1.05833	-71
1.06667	-71
1.07500	-72
1.08333	-72
1.09167	-73
1.10000	-73
1.10833	-74
1.11667	-74
1.12500	-74
1.13333	-75
1.14167	-75
1.15000	-76
1.15833	-76
1.16667	-77
1.17500	-77
1.18333	-77
1.19167	-78
1.20000	-78
1.20833	-79
1.21667	-79
1.22500	-80
1.23333	-80
1.24167	-81
1.25000	-81
1.25833	-82
1.26667	-82
1.27500	-83
1.28333	-83
1.29167	-84
1.30000	-84
1.30833	-85
1.31667	-85
1.32500	-86
1.33333	-86
1.34167	-86
1.35000	-87
1.35833	-87
1.36667	-88
1.37500	-88
1.38333	-89
1.39167	-89
1.40000	-89
1.40833	-90
1.41667	-90
1.42500	-90
1.43333	-91
1.44167	-92
1.45000	-92
1.45833	-92
1.46667	-92
1.47500	-92
1.48333	-93
1.49167	-93
1.50000	-93
1.50833	-93
1.51667	-94
1.52500	-94
1.53333	-95
1.54167	-95
1.55000	-95
1.55833	-95
1.56667	-95
1.57500	-95
1.58333	-95
1.59167	-96
1.60000	-96
1.60833	-97
1.61667	-97
1.62500	-97
1.63333	-98
1.64167	-98
1.65000	-99
1.65833	-99
1.66667	-100
1.67500	-101
1.68333	-101
1.69167	-101
1.70000	-101
1.70833	-101
1.71667	-102
1.72500	-103
1.73333	-103
1.74167	-104
1.75000	-104
1.75833	-105
1.76667	-105
1.77500	-105
1.78333	-105
1.79167	-105
1.80000	-106
1.80833	-107
1.81667	-107
1.82500	-107
1.83333	-107
1.84167	-108
1.85000	-108
1.85833	-108
1.86667	-108
1.87500	-109
1.88333	-109
1.89167	-109
1.90000	-110
1.90833	-110
1.91667	-111
1.92500	-111
1.93333	-112
1.94167	-112
1.95000	-112
1.95833	-112
1.96667	-112
1.97500	-113
1.98333	-113
1.99167	-114
2.00000	-114
2.00833	-114
2.01667	-114
2.02500	-115
2.03333	-115
2.04167	-116
2.05000	-116
2.05833	-116
2.06667	-116
2.07500	-116
2.08333	-116
2.09167	-116
2.10000	-116
2.10833	-117
2.11667	-117
2.12500	-117
2.13333	-117
2.14167	-116
2.15000	-116
2.15833	-116
2.16667	-116
2.17500	-115
2.18333	-115
2.19167	-115
2.20000	-114
2.20833	-114
2.21667	-113
2.22500	-112
2.23333	-111
2.24167	-110
2.25000	-109
2.25833	-107
2.26667	-105
2.27500	-104
2.28333	-102
2.29167	-101
2.30000	-99
2.30833	-97
2.31667	-95
2.32500	-93
2.33333	-91
2.34167	-89
2.35000	-86
2.35833	-83
2.36667	-80
2.37500	-77
2.38333	-73
2.39167	-70
2.40000	-66
2.40833	-62
2.41667	-57
2.42500	-53
2.43333	-47
2.44167	-42
2.45000	-36
2.45833	-29
2.46667	-23
2.47500	-16
2.48333	-9
2.49167	-1
2.50000	7
2.50833	16
2.51667	25
2.52500	35
2.53333	46
2.54167	57
2.55000	69
2.55833	82
2.56667	95
2.57500	108
2.58333	122
2.59167	137
2.60000	154
2.60833	171
2.61667	189
2.62500	207
2.63333	227
2.64167	248
2.65000	270
2.65833	292
2.66667	316
2.67500	342
2.68333	369
2.69167	397
2.70000	427
2.70833	458
2.71667	491
2.72500	526
2.73333	563
2.74167	601
2.75000	642
2.75833	684
2.76667	729
2.77500	777
2.78333	826
2.79167	879
2.80000	934
2.80833	992
2.81667	1053
2.82500	1117
2.83333	1184
2.84167	1255
2.85000	1329
2.85833	1407
2.86667	1489
2.87500	1575
2.88333	1665
2.89167	1760
2.90000	1859
2.90833	1963
2.91667	2072
2.92500	2186
2.93333	2304
2.94167	2428
2.95000	2556
2.95833	2690
2.96667	2830
2.97500	2974
2.98333	3125
2.99167	3280
3.00000	3441
3.00833	3607
3.01667	3779
3.02500	3955
3.03333	4136
3.04167	4322
3.05000	4511
3.05833	4705
3.06667	4902
3.07500	5103
3.08333	5307
3.09167	5513
3.10000	5721
3.10833	5931
3.11667	6141
3.12500	6351
3.13333	6561
3.14167	6770
3.15000	6978
3.15833	7183
3.16667	7385
3.17500	7583
3.18333	7777
3.19167	7966
3.20000	8149
3.20833	8325
3.21667	8494
3.22500	8654
3.23333	8806
3.24167	8949
3.25000	9081
3.25833	9204
3.26667	9315
3.27500	9416
3.28333	9504
3.29167	9580
3.30000	9644
3.30833	9695
3.31667	9732
3.32500	9757
3.33333	9768
3.34167	9766
3.35000	9751
3.35833	9722
3.36667	9681
3.37500	9627
3.38333	9560
3.39167	9481
3.40000	9390
3.40833	9288
3.41667	9176
3.42500	9052
3.43333	8919
3.44167	8776
3.45000	8624
3.45833	8465
3.46667	8298
3.47500	8125
3.48333	7945
3.49167	7759
3.50000	7568
3.50833	7374
3.51667	7176
3.52500	6975
3.53333	6771
3.54167	6566
3.55000	6360
3.55833	6153
3.56667	5947
3.57500	5741
3.58333	5536
3.59167	5332
3.60000	5131
3.60833	4932
3.61667	4736
3.62500	4543
3.63333	4354
3.64167	4169
3.65000	3987
3.65833	3810
3.66667	3637
3.67500	3469
3.68333	3306
3.69167	3148
3.70000	2994
3.70833	2845
3.71667	2702
3.72500	2564
3.73333	2431
3.74167	2303
3.75000	2179
3.75833	2061
3.76667	1948
3.77500	1840
3.78333	1737
3.79167	1639
3.80000	1546
3.80833	1457
3.81667	1372
3.82500	1292
3.83333	1216
3.84167	1144
3.85000	1076
3.85833	1012
3.86667	951
3.87500	894
3.88333	840
3.89167	789
3.90000	741
3.90833	696
3.91667	653
3.92500	613
3.93333	575
3.94167	540
3.95000	506
3.95833	474
3.96667	445
3.97500	418
3.98333	392
3.99167	367
4.00000	343
4.00833	321
4.01667	301
4.02500	281
4.03333	262
4.04167	245
4.05000	229
4.05833	214
4.06667	200
4.07500	186
4.08333	173
4.09167	160
4.10000	149
4.10833	138
4.11667	127
4.12500	117
4.13333	107
4.14167	98
4.15000	89
4.15833	81
4.16667	74
4.17500	66
4.18333	59
4.19167	52
4.20000	45
4.20833	38
4.21667	32
4.22500	25
4.23333	19
4.24167	13
4.25000	7
4.25833	1
4.26667	-5
4.27500	-10
4.28333	-16
4.29167	-21
4.30000	-26
4.30833	-31
4.31667	-37
4.32500	-41
4.33333	-46
4.34167	-50
4.35000	-54
4.35833	-58
4.36667	-62
4.37500	-66
4.38333	-70
4.39167	-73
4.40000	-76
4.40833	-79
4.41667	-82
4.42500	-84
4.43333	-87
4.44167	-89
4.45000	-92
4.45833	-94
4.46667	-96
4.47500	-98
4.48333	-100
4.49167	-101
4.50000	-103
4.50833	-104
4.51667	-105
4.52500	-106
4.53333	-107
4.54167	-107
4.55000	-108
4.55833	-109
4.56667	-110
4.57500	-110
4.58333	-111
4.59167	-112
4.60000	-113
4.60833	-113
4.61667	-114
4.62500	-114
4.63333	-115
4.64167	-115
4.65000	-116
4.65833	-116
4.66667	-116
4.67500	-116
4.68333	-116
4.69167	-116
4.70000	-116
4.70833	-115
4.71667	-114
4.72500	-114
4.73333	-114
4.74167	-113
4.75000	-113
4.75833	-112
4.76667	-111
4.77500	-110
4.78333	-109
4.79167	-108
4.80000	-107
4.80833	-106
4.81667	-105
4.82500	-104
4.83333	-103
4.84167	-103
4.85000	-101
4.85833	-100
4.86667	-99
4.87500	-99
4.88333	-98
4.89167	-98
4.90000	-97
4.90833	-96
4.91667	-96
4.92500	-96
4.93333	-95
4.94167	-95
4.95000	-94
4.95833	-94
4.96667	-93
4.97500	-93
4.98333	-93
4.99167	-93
5.00000	-93
5.00833	-93
5.01667	-93
5.02500	-93
5.03333	-92
5.04167	-92
5.05000	-93
5.05833	-93
5.06667	-93
5.07500	-92
5.08333	-92
5.09167	-91
5.10000	-91
5.10833	-91
5.11667	-91
5.12500	-91
5.13333	-91
5.14167	-91
5.15000	-91
5.15833	-91
5.16667	-91
5.17500	-91
5.18333	-92
5.19167	-93
5.20000	-93
5.20833	-94
5.21667	-94
5.22500	-95
5.23333	-95
5.24167	-96
5.25000	-96
5.25833	-97
5.26667	-98
5.27500	-99
5.28333	-99
5.29167	-100
5.30000	-100
5.30833	-101
5.31667	-101
5.32500	-102
5.33333	-102
5.34167	-102
5.35000	-103
5.35833	-103
5.36667	-104
5.37500	-105
5.38333	-105
5.39167	-105
5.40000	-106
5.40833	-107
5.41667	-108
5.42500	-108
5.43333	-109
5.44167	-110
5.45000	-111
5.45833	-112
5.46667	-113
5.47500	-114
5.48333	-115
5.49167	-116
5.50000	-116
5.50833	-117
5.51667	-117
5.52500	-118
5.53333	-119
5.54167	-119
5.55000	-119
5.55833	-119
5.56667	-120
5.57500	-120
5.58333	-120
5.59167	-121
5.60000	-122
5.60833	-122
5.61667	-122
5.62500	-123
5.63333	-123
5.64167	-124
5.65000	-124
5.65833	-125
5.66667	-125
5.67500	-126
5.68333	-126
5.69167	-127
5.70000	-127
5.70833	-127
5.71667	-127
5.72500	-128
5.73333	-128
5.74167	-129
5.75000	-129
5.75833	-130
5.76667	-131
5.77500	-131
5.78333	-132
5.79167	-132
5.80000	-132
5.80833	-133
5.81667	-133
5.82500	-133
5.83333	-133
5.84167	-133
5.85000	-133
5.85833	-133
5.86667	-134
5.87500	-134
5.88333	-134
5.89167	-134
5.90000	-134
5.90833	-134
5.91667	-134
5.92500	-134
5.93333	-134
5.94167	-135
5.95000	-135
5.95833	-135
5.96667	-136
5.97500	-136
5.98333	-136
5.99167	-137
6.00000	-137
6.00833	-137
6.01667	-138
6.02500	-138
6.03333	-138
6.04167	-138
6.05000	-139
6.05833	-139
6.06667	-140
6.07500	-140
6.08333	-141
6.09167	-141
6.10000	-141
6.10833	-140
6.11667	-140
6.12500	-140
6.13333	-139
6.14167	-139
6.15000	-139
6.15833	-138
6.16667	-138
6.17500	-137
6.18333	-137
6.19167	-137
6.20000	-137
6.20833	-137
6.21667	-137
6.22500	-137
6.23333	-137
6.24167	-137
6.25000	-137
6.25833	-137
6.26667	-137
6.27500	-137
6.28333	-137
6.29167	-137
6.30000	-138
6.30833	-138
6.31667	-138
6.32500	-138
6.33333	-138
6.34167	-138
6.35000	-138
6.35833	-138
6.36667	-139
6.37500	-139
6.38333	-139
6.39167	-139
6.40000	-139
6.40833	-139
6.41667	-139
6.42500	-139
6.43333	-139
6.44167	-139
6.45000	-138
6.45833	-138
6.46667	-138
6.47500	-138
6.48333	-137
6.49167	-137
6.50000	-137
6.50833	-137
6.51667	-136
6.52500	-136
6.53333	-136
6.54167	-136
6.55000	-137
6.55833	-137
6.56667	-138
6.57500	-138
6.58333	-138
6.59167	-138
6.60000	-138
6.60833	-139
6.61667	-139
6.62500	-139
6.63333	-139
6.64167	-140
6.65000	-140
6.65833	-141
6.66667	-141
6.67500	-142
6.68333	-142
6.69167	-142
6.70000	-143
6.70833	-143
6.71667	-143
6.72500	-143
6.73333	-144
6.74167	-144
6.75000	-145
6.75833	-145
6.76667	-146
6.77500	-146
6.78333	-146
6.79167	-146
6.80000	-146
6.80833	-145
6.81667	-145
6.82500	-146
6.83333	-146
6.84167	-145
6.85000	-145
6.85833	-145
6.86667	-145
6.87500	-145
6.88333	-144
6.89167	-144
6.90000	-144
6.90833	-144
6.91667	-144
6.92500	-144
6.93333	-143
6.94167	-143
6.95000	-143
6.95833	-142
6.96667	-142
6.97500	-142
6.98333	-143
6.99167	-143
7.00000	-143
7.00833	-143
7.01667	-143
7.02500	-144
7.03333	-144
7.04167	-144
7.05000	-144
7.05833	-144
7.06667	-143
7.07500	-142
7.08333	-140
7.09167	-138
7.10000	-135
7.10833	-131
7.11667	-126
7.12500	-121
7.13333	-114
7.14167	-106
7.15000	-96
7.15833	-85
7.16667	-72
7.17500	-57
7.18333	-40
7.19167	-21
7.20000	-0
7.20833	23
7.21667	48
7.22500	74
7.23333	101
7.24167	130
7.25000	159
7.25833	188
7.26667	215
7.27500	239
7.28333	259
7.29167	272
7.30000	278
7.30833	274
7.31667	259
7.32500	234
7.33333	201
7.34167	164
7.35000	130
7.35833	111
7.36667	119
7.37500	172
7.38333	287
7.39167	485
7.40000	785
7.40833	1208
7.41667	1770
7.42500	2484
7.43333	3360
7.44167	4400
7.45000	5599
7.45833	6946
7.46667	8419
7.47500	9985
7.48333	11604
7.49167	13225
7.50000	14790
7.50833	16236
7.51667	17499
7.52500	18520
7.53333	19251
7.54167	19659
7.55000	19729
7.55833	19468
7.56667	18902
7.57500	18073
7.58333	17033
7.59167	15843
7.60000	14561
7.60833	13244
7.61667	11939
7.62500	10684
7.63333	9508
7.64167	8430
7.65000	7458
7.65833	6596
7.66667	5840
7.67500	5183
7.68333	4617
7.69167	4131
7.70000	3715
7.70833	3357
7.71667	3050
7.72500	2785
7.73333	2555
7.74167	2355
7.75000	2179
7.75833	2024
7.76667	1887
7.77500	1764
7.78333	1655
7.79167	1556
7.80000	1467
7.80833	1385
7.81667	1310
7.82500	1240
7.83333	1175
7.84167	1113
7.85000	1053
7.85833	996
7.86667	940
7.87500	886
7.88333	833
7.89167	782
7.90000	733
7.90833	686
7.91667	640
7.92500	597
7.93333	556
7.94167	519
7.95000	484
7.95833	452
7.96667	424
7.97500	398
7.98333	375
7.99167	355
8.00000	338
8.00833	323
8.01667	310
8.02500	298
8.03333	288
8.04167	278
8.05000	269
8.05833	261
8.06667	253
8.07500	245
8.08333	236
8.09167	228
8.10000	220
8.10833	211
8.11667	202
8.12500	193
8.13333	184
8.14167	174
8.15000	165
8.15833	157
8.16667	149
8.17500	142
8.18333	135
8.19167	129
8.20000	123
8.20833	117
8.21667	112
8.22500	108
8.23333	104
8.24167	100
8.25000	97
8.25833	95
8.26667	93
8.27500	91
8.28333	89
8.29167	88
8.30000	88
8.30833	88
8.31667	87
8.32500	87
8.33333	86
8.34167	86
8.35000	85
8.35833	85
8.36667	85
8.37500	85
8.38333	85
8.39167	85
8.40000	85
8.40833	84
8.41667	83
8.42500	82
8.43333	82
8.44167	81
8.45000	80
8.45833	79
8.46667	77
8.47500	76
8.48333	75
8.49167	73
8.50000	71
8.50833	69
8.51667	67
8.52500	65
8.53333	64
8.54167	62
8.55000	60
8.55833	58
8.56667	57
8.57500	56
8.58333	54
8.59167	53
8.60000	52
8.60833	51
8.61667	50
8.62500	50
8.63333	50
8.64167	50
8.65000	50
8.65833	51
8.66667	52
8.67500	53
8.68333	55
8.69167	57
8.70000	59
8.70833	62
8.71667	65
8.72500	68
8.73333	72
8.74167	76
8.75000	80
8.75833	84
8.76667	89
8.77500	93
8.78333	97
8.79167	101
8.80000	106
8.80833	111
8.81667	116
8.82500	123
8.83333	129
8.84167	137
8.85000	146
8.85833	157
8.86667	170
8.87500	187
8.88333	207
8.89167	231
8.90000	260
8.90833	296
8.91667	339
8.92500	390
8.93333	449
8.94167	517
8.95000	594
8.95833	680
8.96667	777
8.97500	882
8.98333	995
8.99167	1115
9.00000	1240
9.00833	1368
9.01667	1498
9.02500	1626
9.03333	1750
9.04167	1867
9.05000	1974
9.05833	2070
9.06667	2153
9.07500	2221
9.08333	2273
9.09167	2307
9.10000	2324
9.10833	2323
9.11667	2305
9.12500	2270
9.13333	2221
9.14167	2159
9.15000	2086
9.15833	2003
9.16667	1913
9.17500	1817
9.18333	1718
9.19167	1616
9.20000	1515
9.20833	1414
9.21667	1317
9.22500	1223
9.23333	1133
9.24167	1049
9.25000	969
9.25833	896
9.26667	828
9.27500	766
9.28333	710
9.29167	659
9.30000	614
9.30833	574
9.31667	538
9.32500	508
9.33333	481
9.34167	458
9.35000	439
9.35833	424
9.36667	413
9.37500	406
9.38333	403
9.39167	403
9.40000	409
9.40833	419
9.41667	435
9.42500	459
9.43333	490
9.44167	531
9.45000	584
9.45833	650
9.46667	734
9.47500	839
9.48333	969
9.49167	1127
9.50000	1320
9.50833	1551
9.51667	1827
9.52500	2154
9.53333	2536
9.54167	2979
9.55000	3485
9.55833	4059
9.56667	4702
9.57500	5414
9.58333	6192
9.59167	7033
9.60000	7931
9.60833	8876
9.61667	9859
9.62500	10868
9.63333	11887
9.64167	12902
9.65000	13898
9.65833	14857
9.66667	15765
9.67500	16606
9.68333	17368
9.69167	18040
9.70000	18612
9.70833	19078
9.71667	19435
9.72500	19683
9.73333	19824
9.74167	19862
9.75000	19806
9.75833	19664
9.76667	19449
9.77500	19172
9.78333	18846
9.79167	18484
9.80000	18100
9.80833	17706
9.81667	17314
9.82500	16936
9.83333	16580
9.84167	16256
9.85000	15969
9.85833	15726
9.86667	15531
9.87500	15388
9.88333	15298
9.89167	15262
9.90000	15281
9.90833	15353
9.91667	15476
9.92500	15649
9.93333	15870
9.94167	16136
9.95000	16444
9.95833	16790
9.96667	17172
9.97500	17586
9.98333	18030
9.99167	18499
10.00000	18990
10.00833	19501
10.01667	20027
10.02500	20565
10.03333	21110
10.04167	21657
10.05000	22197
10.05833	22718
10.06667	23203
10.07500	23627
10.08333	23959
10.09167	24163
10.10000	24197
10.10833	24026
10.11667	23618
10.12500	22957
10.13333	22044
10.14167	20899
10.15000	19559
10.15833	18072
10.16667	16495
10.17500	14885
10.18333	13296
10.19167	11771
10.20000	10342
10.20833	9033
10.21667	7856
10.22500	6815
10.23333	5905
10.24167	5118
10.25000	4444
10.25833	3872
10.26667	3388
10.27500	2979
10.28333	2636
10.29167	2346
10.30000	2102
10.30833	1896
10.31667	1721
10.32500	1572
10.33333	1443
10.34167	1331
10.35000	1234
10.35833	1148
10.36667	1072
10.37500	1004
10.38333	942
10.39167	886
10.40000	835
10.40833	788
10.41667	744
10.42500	704
10.43333	667
10.44167	633
10.45000	602
10.45833	575
10.46667	550
10.47500	528
10.48333	509
10.49167	493
10.50000	479
10.50833	469
10.51667	462
10.52500	457
10.53333	456
10.54167	458
10.55000	462
10.55833	469
10.56667	478
10.57500	488
10.58333	500
10.59167	513
10.60000	526
10.60833	538
10.61667	550
10.62500	561
10.63333	569
10.64167	575
10.65000	579
10.65833	580
10.66667	578
10.67500	574
10.68333	566
10.69167	555
10.70000	541
10.70833	525
10.71667	506
10.72500	486
10.73333	465
10.74167	442
10.75000	420
10.75833	396
10.76667	373
10.77500	351
10.78333	330
10.79167	309
10.80000	290
10.80833	273
10.81667	257
10.82500	242
10.83333	230
10.84167	218
10.85000	209
10.85833	200
10.86667	193
10.87500	188
10.88333	183
10.89167	178
10.90000	175
10.90833	171
10.91667	168
10.92500	166
10.93333	163
10.94167	161
10.95000	159
10.95833	157
10.96667	155
10.97500	154
10.98333	153
10.99167	153
11.00000	154
11.00833	156
11.01667	159
11.02500	164
11.03333	171
11.04167	180
11.05000	192
11.05833	207
11.06667	227
11.07500	252
11.08333	282
11.09167	318
11.10000	360
11.10833	410
11.11667	468
11.12500	536
11.13333	613
11.14167	700
11.15000	799
11.15833	909
11.16667	1032
11.17500	1167
11.18333	1314
11.19167	1474
11.20000	1647
11.20833	1832
11.21667	2029
11.22500	2239
11.23333	2461
11.24167	2694
11.25000	2937
11.25833	3190
11.26667	3452
11.27500	3723
11.28333	4000
11.29167	4283
11.30000	4571
11.30833	4863
11.31667	5157
11.32500	5452
11.33333	5744
11.34167	6031
11.35000	6310
11.35833	6575
11.36667	6821
11.37500	7040
11.38333	7222
11.39167	7358
11.40000	7438
11.40833	7453
11.41667	7396
11.42500	7263
11.43333	7056
11.44167	6777
11.45000	6436
11.45833	6044
11.46667	5616
11.47500	5165
11.48333	4705
11.49167	4251
11.50000	3811
11.50833	3396
11.51667	3010
11.52500	2658
11.53333	2340
11.54167	2057
11.55000	1806
11.55833	1587
11.56667	1397
11.57500	1233
11.58333	1091
11.59167	969
11.60000	864
11.60833	774
11.61667	697
11.62500	630
11.63333	572
11.64167	521
11.65000	478
11.65833	439
11.66667	405
11.67500	376
11.68333	350
11.69167	326
11.70000	305
11.70833	287
11.71667	270
11.72500	255
11.73333	242
11.74167	229
11.75000	219
11.75833	209
11.76667	200
11.77500	193
11.78333	186
11.79167	179
11.80000	174
11.80833	169
11.81667	164
11.82500	160
11.83333	155
11.84167	152
11.85000	148
11.85833	144
11.86667	141
11.87500	138
11.88333	134
11.89167	131
11.90000	127
11.90833	124
11.91667	120
11.92500	115
11.93333	111
11.94167	106
11.95000	101
11.95833	95
11.96667	90
11.97500	84
11.98333	78
11.99167	72
12.00000	65
12.00833	59
12.01667	53
12.02500	47
12.03333	42
12.04167	37
12.05000	33
12.05833	28
12.06667	23
12.07500	19
12.08333	14
12.09167	11
12.10000	7
12.10833	4
12.11667	1
12.12500	-2
12.13333	-4
12.14167	-7
12.15000	-9
12.15833	-12
12.16667	-14
12.17500	-15
12.18333	-17
12.19167	-19
12.20000	-21
12.20833	-23
12.21667	-24
12.22500	-25
12.23333	-26
12.24167	-28
12.25000	-29
12.25833	-31
12.26667	-32
12.27500	-33
12.28333	-34
12.29167	-35
12.30000	-37
12.30833	-38
12.31667	-40
12.32500	-41
12.33333	-42
12.34167	-43
12.35000	-44
12.35833	-45
12.36667	-46
12.37500	-46
12.38333	-47
12.39167	-48
12.40000	-48
12.40833	-49
12.41667	-50
12.42500	-51
12.43333	-51
12.44167	-52
12.45000	-52
12.45833	-53
12.46667	-53
12.47500	-53
12.48333	-54
12.49167	-54
12.50000	-54
12.50833	-55
12.51667	-54
12.52500	-54
12.53333	-54
12.54167	-53
12.55000	-52
12.55833	-51
12.56667	-51
12.57500	-50
12.58333	-49
12.59167	-49
12.60000	-48
12.60833	-47
12.61667	-46
12.62500	-46
12.63333	-44
12.64167	-43
12.65000	-41
12.65833	-40
12.66667	-39
12.67500	-37
12.68333	-37
12.69167	-36
12.70000	-35
12.70833	-34
12.71667	-33
12.72500	-32
12.73333	-31
12.74167	-30
12.75000	-30
12.75833	-29
12.76667	-28
12.77500	-27
12.78333	-27
12.79167	-27
12.80000	-26
12.80833	-26
12.81667	-26
12.82500	-26
12.83333	-25
12.84167	-25
12.85000	-25
12.85833	-24
12.86667	-24
12.87500	-23
12.88333	-22
12.89167	-21
12.90000	-19
12.90833	-17
12.91667	-15
12.92500	-14
12.93333	-12
12.94167	-10
12.95000	-7
12.95833	-5
12.96667	-2
12.97500	0
12.98333	3
12.99167	6
13.00000	8
13.00833	10
13.01667	13
13.02500	16
13.03333	19
13.04167	21
13.05000	24
13.05833	26
13.06667	28
13.07500	30
13.08333	31
13.09167	32
13.10000	32
13.10833	32
13.11667	32
13.12500	32
13.13333	32
13.14167	32
13.15000	31
13.15833	30
13.16667	29
13.17500	28
13.18333	26
13.19167	25
13.20000	24
13.20833	22
13.21667	21
13.22500	21
13.23333	20
13.24167	19
13.25000	17
13.25833	16
13.26667	15
13.27500	15
13.28333	15
13.29167	15
13.30000	16
13.30833	16
13.31667	16
13.32500	16
13.33333	17
13.34167	18
13.35000	19
13.35833	21
13.36667	22
13.37500	24
13.38333	25
13.39167	27
13.40000	30
13.40833	32
13.41667	34
13.42500	37
13.43333	39
13.44167	42
13.45000	45
13.45833	49
13.46667	52
13.47500	55
13.48333	59
13.49167	63
13.50000	67
13.50833	72
13.51667	77
13.52500	82
13.53333	88
13.54167	93
13.55000	100
13.55833	107
13.56667	114
13.57500	121
13.58333	129
13.59167	137
13.60000	146
13.60833	156
13.61667	166
13.62500	177
13.63333	188
13.64167	200
13.65000	212
13.65833	225
13.66667	238
13.67500	251
13.68333	264
13.69167	277
13.70000	290
13.70833	303
13.71667	315
13.72500	327
13.73333	338
13.74167	348
13.75000	357
13.75833	365
13.76667	373
13.77500	380
13.78333	386
13.79167	391
13.80000	396
13.80833	400
13.81667	403
13.82500	406
13.83333	409
13.84167	412
13.85000	414
13.85833	416
13.86667	419
13.87500	422
13.88333	425
13.89167	428
13.90000	431
13.90833	434
13.91667	437
13.92500	440
13.93333	443
13.94167	446
13.95000	448
13.95833	449
13.96667	450
13.97500	450
13.98333	449
13.99167	448
14.00000	445
14.00833	441
14.01667	437
14.02500	432
14.03333	426
14.04167	419
14.05000	411
14.05833	403
14.06667	394
14.07500	385
14.08333	376
14.09167	367
14.10000	357
14.10833	348
14.11667	339
14.12500	330
14.13333	322
14.14167	314
14.15000	307
14.15833	299
14.16667	292
14.17500	286
14.18333	281
14.19167	276
14.20000	271
14.20833	267
14.21667	264
14.22500	261
14.23333	259
14.24167	257
14.25000	255
14.25833	254
14.26667	253
14.27500	252
14.28333	251
14.29167	251
14.30000	251
14.30833	251
14.31667	251
14.32500	252
14.33333	253
14.34167	254
14.35000	256
14.35833	257
14.36667	259
14.37500	260
14.38333	262
14.39167	263
14.40000	264
14.40833	265
14.41667	267
14.42500	269
14.43333	270
14.44167	271
14.45000	273
14.45833	275
14.46667	276
14.47500	278
14.48333	279
14.49167	280
14.50000	281
14.50833	282
14.51667	283
14.52500	283
14.53333	284
14.54167	284
14.55000	284
14.55833	285
14.56667	285
14.57500	285
14.58333	285
14.59167	285
14.60000	284
14.60833	284
14.61667	283
14.62500	282
14.63333	281
14.64167	280
14.65000	279
14.65833	279
14.66667	278
14.67500	277
14.68333	276
14.69167	275
14.70000	274
14.70833	273
14.71667	272
14.72500	271
14.73333	270
14.74167	270
14.75000	269
14.75833	268
14.76667	267
14.77500	267
14.78333	266
14.79167	266
14.80000	267
14.80833	267
14.81667	268
14.82500	269
14.83333	270
14.84167	271
14.85000	272
14.85833	274
14.86667	275
14.87500	277
14.88333	279
14.89167	280
14.90000	282
14.90833	284
14.91667	287
14.92500	289
14.93333	291
14.94167	294
14.95000	296
14.95833	299
14.96667	302
14.97500	305
14.98333	309
14.99167	313
15.00000	317
15.00833	321
15.01667	326
15.02500	332
15.03333	338
15.04167	344
15.05000	352
15.05833	361
15.06667	371
15.07500	383
15.08333	396
15.09167	410
15.10000	427
15.10833	445
15.11667	466
15.12500	488
15.13333	513
15.14167	539
15.15000	567
15.15833	598
15.16667	630
15.17500	663
15.18333	697
15.19167	732
15.20000	766
15.20833	801
15.21667	835
15.22500	868
15.23333	899
15.24167	928
15.25000	954
15.25833	977
15.26667	997
15.27500	1013
15.28333	1025
15.29167	1033
15.30000	1036
15.30833	1035
15.31667	1029
15.32500	1019
15.33333	1004
15.34167	985
15.35000	963
15.35833	937
15.36667	909
15.37500	878
15.38333	845
15.39167	810
15.40000	774
15.40833	737
15.41667	699
15.42500	662
15.43333	624
15.44167	588
15.45000	552
15.45833	517
15.46667	483
15.47500	451
15.48333	419
15.49167	390
15.50000	361
15.50833	335
15.51667	310
15.52500	287
15.53333	266
15.54167	246
15.55000	228
15.55833	211
15.56667	195
15.57500	181
15.58333	167
15.59167	154
15.60000	143
15.60833	132
15.61667	123
15.62500	114
15.63333	106
15.64167	98
15.65000	91
15.65833	85
15.66667	79
15.67500	73
15.68333	68
15.69167	64
15.70000	60
15.70833	56
15.71667	52
15.72500	49
15.73333	46
15.74167	43
15.75000	41
15.75833	39
15.76667	37
15.77500	35
15.78333	34
15.79167	33
15.80000	32
15.80833	30
15.81667	29
15.82500	28
15.83333	28
15.84167	27
15.85000	27
15.85833	27
15.86667	27
15.87500	27
15.88333	27
15.89167	28
15.90000	28
15.90833	29
15.91667	30
15.92500	32
15.93333	34
15.94167	37
15.95000	40
15.95833	44
15.96667	48
15.97500	53
15.98333	58
15.99167	64
16.00000	71
16.00833	79
16.01667	87
16.02500	96
16.03333	105
16.04167	114
16.05000	124
16.05833	134
16.06667	145
16.07500	155
16.08333	165
16.09167	174
16.10000	183
16.10833	192
16.11667	201
16.12500	208
16.13333	215
16.14167	220
16.15000	225
16.15833	229
16.16667	231
16.17500	232
16.18333	232
16.19167	231
16.20000	228
16.20833	225
16.21667	221
16.22500	216
16.23333	210
16.24167	205
16.25000	198
16.25833	192
16.26667	185
16.27500	179
16.28333	172
16.29167	165
16.30000	159
16.30833	153
16.31667	148
16.32500	143
16.33333	138
16.34167	134
16.35000	131
16.35833	128
16.36667	126
16.37500	124
16.38333	124
16.39167	123
16.40000	123
16.40833	124
16.41667	125
16.42500	126
16.43333	128
16.44167	131
16.45000	134
16.45833	137
16.46667	140
16.47500	145
16.48333	149
16.49167	154
16.50000	160
16.50833	165
16.51667	171
16.52500	176
16.53333	182
16.54167	188
16.55000	195
16.55833	201
16.56667	207
16.57500	213
16.58333	218
16.59167	224
16.60000	229
16.60833	234
16.61667	238
16.62500	242
16.63333	245
16.64167	248
16.65000	251
16.65833	252
16.66667	253
16.67500	253
16.68333	252
16.69167	251
16.70000	249
16.70833	246
16.71667	241
16.72500	237
16.73333	231
16.74167	224
16.75000	218
16.75833	211
16.76667	204
16.77500	197
16.78333	189
16.79167	182
16.80000	174
16.80833	166
16.81667	158
16.82500	150
16.83333	142
16.84167	135
16.85000	128
16.85833	121
16.86667	114
16.87500	107
16.88333	101
16.89167	95
16.90000	89
16.90833	84
16.91667	79
16.92500	74
16.93333	70
16.94167	66
16.95000	62
16.95833	58
16.96667	55
16.97500	52
16.98333	48
16.99167	46
17.00000	43
17.00833	40
17.01667	38
17.02500	35
17.03333	33
17.04167	31
17.05000	28
17.05833	26
17.06667	24
17.07500	22
17.08333	20
17.09167	19
17.10000	17
17.10833	16
17.11667	14
17.12500	13
17.13333	11
17.14167	10
17.15000	8
17.15833	7
17.16667	6
17.17500	5
17.18333	4
17.19167	3
17.20000	2
17.20833	1
17.21667	0
17.22500	-0
17.23333	-1
17.24167	-2
17.25000	-3
17.25833	-4
17.26667	-5
17.27500	-6
17.28333	-6
17.29167	-7
17.30000	-7
17.30833	-8
17.31667	-8
17.32500	-9
17.33333	-9
17.34167	-10
17.35000	-10
17.35833	-10
17.36667	-10
17.37500	-10
17.38333	-10
17.39167	-10
17.40000	-10
17.40833	-10
17.41667	-10
17.42500	-10
17.43333	-10
17.44167	-10
17.45000	-10
17.45833	-9
17.46667	-9
17.47500	-9
17.48333	-8
17.49167	-8
17.50000	-7
17.50833	-7
17.51667	-6
17.52500	-5
17.53333	-4
17.54167	-4
17.55000	-3
17.55833	-2
17.56667	-2
17.57500	-1
17.58333	0
17.59167	2
17.60000	3
17.60833	4
17.61667	6
17.62500	8
17.63333	10
17.64167	12
17.65000	13
17.65833	16
17.66667	18
17.67500	20
17.68333	23
17.69167	26
17.70000	29
17.70833	33
17.71667	37
17.72500	41
17.73333	46
17.74167	51
17.75000	57
17.75833	62
17.76667	69
17.77500	76
17.78333	83
17.79167	91
17.80000	100
17.80833	110
17.81667	121
17.82500	133
17.83333	146
17.84167	161
17.85000	177
17.85833	194
17.86667	214
17.87500	235
17.88333	258
17.89167	284
17.90000	312
17.90833	342
17.91667	374
17.92500	409
17.93333	447
17.94167	487
17.95000	530
17.95833	577
17.96667	625
17.97500	676
17.98333	730
17.99167	786
18.00000	843
18.00833	902
18.01667	962
18.02500	1023
18.03333	1084
18.04167	1146
18.05000	1206
18.05833	1266
18.06667	1324
18.07500	1379
18.08333	1430
18.09167	1478
18.10000	1522
18.10833	1560
18.11667	1594
18.12500	1622
18.13333	1645
18.14167	1661
18.15000	1670
18.15833	1674
18.16667	1671
18.17500	1662
18.18333	1647
18.19167	1626
18.20000	1600
18.20833	1568
18.21667	1532
18.22500	1491
18.23333	1447
18.24167	1400
18.25000	1350
18.25833	1298
18.26667	1244
18.27500	1190
18.28333	1135
18.29167	1080
18.30000	1025
18.30833	971
18.31667	918
18.32500	867
18.33333	816
18.34167	768
18.35000	722
18.35833	678
18.36667	636
18.37500	596
18.38333	559
18.39167	523
18.40000	491
18.40833	460
18.41667	431
18.42500	404
18.43333	380
18.44167	357
18.45000	336
18.45833	317
18.46667	299
18.47500	283
18.48333	269
18.49167	255
18.50000	243
18.50833	231
18.51667	221
18.52500	213
18.53333	205
18.54167	198
18.55000	191
18.55833	186
18.56667	181
18.57500	177
18.58333	173
18.59167	170
18.60000	167
18.60833	165
18.61667	164
18.62500	163
18.63333	163
18.64167	164
18.65000	165
18.65833	166
18.66667	169
18.67500	171
18.68333	174
18.69167	178
18.70000	182
18.70833	187
18.71667	193
18.72500	199
18.73333	206
18.74167	214
18.75000	222
18.75833	230
18.76667	240
18.77500	249
18.78333	259
18.79167	269
18.80000	280
18.80833	290
18.81667	301
18.82500	312
18.83333	323
18.84167	333
18.85000	343
18.85833	353
18.86667	362
18.87500	371
18.88333	380
18.89167	388
18.90000	395
18.90833	401
18.91667	406
18.92500	410
18.93333	414
18.94167	416
18.95000	417
18.95833	416
18.96667	415
18.97500	414
18.98333	411
18.99167	407
19.00000	402
19.00833	397
19.01667	391
19.02500	384
19.03333	376
19.04167	368
19.05000	359
19.05833	350
19.06667	340
19.07500	331
19.08333	321
19.09167	311
19.10000	301
19.10833	291
19.11667	282
19.12500	273
19.13333	264
19.14167	255
19.15000	247
19.15833	239
19.16667	231
19.17500	224
19.18333	217
19.19167	210
19.20000	204
19.20833	198
19.21667	193
19.22500	188
19.23333	183
19.24167	179
19.25000	175
19.25833	172
19.26667	169
19.27500	166
19.28333	164
19.29167	162
19.30000	160
19.30833	159
19.31667	158
19.32500	157
19.33333	156
19.34167	155
19.35000	155
19.35833	155
19.36667	155
19.37500	155
19.38333	156
19.39167	157
19.40000	158
19.40833	160
19.41667	161
19.42500	162
19.43333	163
19.44167	164
19.45000	166
19.45833	167
19.46667	169
19.47500	170
19.48333	172
19.49167	173
19.50000	174
19.50833	176
19.51667	177
19.52500	178
19.53333	180
19.54167	181
19.55000	182
19.55833	184
19.56667	185
19.57500	187
19.58333	188
19.59167	189
19.60000	190
19.60833	192
19.61667	193
19.62500	194
19.63333	194
19.64167	196
19.65000	196
19.65833	197
19.66667	198
19.67500	199
19.68333	200
19.69167	201
19.70000	201
19.70833	202
19.71667	203
19.72500	203
19.73333	204
19.74167	205
19.75000	206
19.75833	206
19.76667	207
19.77500	207
19.78333	207
19.79167	208
19.80000	208
19.80833	208
19.81667	208
19.82500	208
19.83333	207
19.84167	207
19.85000	207
19.85833	206
19.86667	206
19.87500	206
19.88333	206
19.89167	206
19.90000	205
19.90833	205
19.91667	205
19.92500	205
19.93333	204
19.94167	204
19.95000	203
19.95833	203
19.96667	203
19.97500	203
19.98333	202
19.99167	202
20.00000	201
20.00833	201
20.01667	201
20.02500	202
20.03333	202
20.04167	202
20.05000	203
20.05833	203
20.06667	203
20.07500	204
20.08333	204
20.09167	205
20.10000	206
20.10833	207
20.11667	207
20.12500	208
20.13333	209
20.14167	210
20.15000	211
20.15833	212
20.16667	213
20.17500	214
20.18333	215
20.19167	216
20.20000	217
20.20833	219
20.21667	220
20.22500	221
20.23333	222
20.24167	223
20.25000	225
20.25833	226
20.26667	228
20.27500	229
20.28333	231
20.29167	233
20.30000	234
20.30833	236
20.31667	239
20.32500	240
20.33333	242
20.34167	245
20.35000	247
20.35833	250
20.36667	253
20.37500	256
20.38333	259
20.39167	261
20.40000	264
20.40833	267
20.41667	271
20.42500	274
20.43333	278
20.44167	283
20.45000	287
20.45833	291
20.46667	296
20.47500	301
20.48333	306
20.49167	312
20.50000	317
20.50833	323
20.51667	330
20.52500	337
20.53333	345
20.54167	352
20.55000	361
20.55833	370
20.56667	379
20.57500	389
20.58333	400
20.59167	412
20.60000	425
20.60833	438
20.61667	453
20.62500	468
20.63333	484
20.64167	501
20.65000	520
20.65833	540
20.66667	561
20.67500	584
20.68333	607
20.69167	632
20.70000	658
20.70833	686
20.71667	714
20.72500	745
20.73333	776
20.74167	809
20.75000	843
20.75833	878
20.76667	915
20.77500	952
20.78333	990
20.79167	1029
20.80000	1068
20.80833	1108
20.81667	1148
20.82500	1188
20.83333	1228
20.84167	1268
20.85000	1308
20.85833	1347
20.86667	1386
20.87500	1425
20.88333	1463
20.89167	1500
20.90000	1536
20.90833	1571
20.91667	1605
20.92500	1639
20.93333	1672
20.94167	1704
20.95000	1736
20.95833	1767
20.96667	1798
20.97500	1828
20.98333	1859
20.99167	1890
21.00000	1922
21.00833	1953
21.01667	1985
21.02500	2018
21.03333	2052
21.04167	2089
21.05000	2127
21.05833	2168
21.06667	2212
21.07500	2258
21.08333	2308
21.09167	2362
21.10000	2421
21.10833	2485
21.11667	2554
21.12500	2629
21.13333	2711
21.14167	2799
21.15000	2895
21.15833	3000
21.16667	3113
21.17500	3235
21.18333	3368
21.19167	3512
21.20000	3667
21.20833	3833
21.21667	4013
21.22500	4205
21.23333	4410
21.24167	4629
21.25000	4862
21.25833	5110
21.26667	5372
21.27500	5648
21.28333	5938
21.29167	6242
21.30000	6559
21.30833	6889
21.31667	7229
21.32500	7581
21.33333	7943
21.34167	8312
21.35000	8688
21.35833	9069
21.36667	9452
21.37500	9837
21.38333	10221
21.39167	10601
21.40000	10975
21.40833	11342
21.41667	11698
21.42500	12042
21.43333	12370
21.44167	12681
21.45000	12972
21.45833	13242
21.46667	13488
21.47500	13709
21.48333	13903
21.49167	14069
21.50000	14205
21.50833	14310
21.51667	14385
21.52500	14428
21.53333	14440
21.54167	14420
21.55000	14369
21.55833	14286
21.56667	14174
21.57500	14033
21.58333	13865
21.59167	13670
21.60000	13451
21.60833	13209
21.61667	12946
21.62500	12664
21.63333	12365
21.64167	12050
21.65000	11722
21.65833	11382
21.66667	11034
21.67500	10679
21.68333	10318
21.69167	9954
21.70000	9588
21.70833	9222
21.71667	8858
21.72500	8497
21.73333	8139
21.74167	7788
21.75000	7443
21.75833	7106
21.76667	6778
21.77500	6459
21.78333	6149
21.79167	5850
21.80000	5562
21.80833	5284
21.81667	5017
21.82500	4762
21.83333	4517
21.84167	4283
21.85000	4061
21.85833	3849
21.86667	3648
21.87500	3457
21.88333	3275
21.89167	3104
21.90000	2941
21.90833	2788
21.91667	2643
21.92500	2506
21.93333	2378
21.94167	2257
21.95000	2142
21.95833	2035
21.96667	1934
21.97500	1839
21.98333	1750
21.99167	1667
22.00000	1588
22.00833	1515
22.01667	1446
22.02500	1381
22.03333	1321
22.04167	1264
22.05000	1210
22.05833	1161
22.06667	1115
22.07500	1072
22.08333	1032
22.09167	994
22.10000	960
22.10833	928
22.11667	898
22.12500	871
22.13333	845
22.14167	822
22.15000	801
22.15833	781
22.16667	763
22.17500	747
22.18333	732
22.19167	718
22.20000	705
22.20833	694
22.21667	684
22.22500	674
22.23333	666
22.24167	659
22.25000	653
22.25833	648
22.26667	643
22.27500	639
22.28333	636
22.29167	633
22.30000	629
22.30833	626
22.31667	624
22.32500	622
22.33333	620
22.34167	618
22.35000	616
22.35833	614
22.36667	612
22.37500	611
22.38333	609
22.39167	608
22.40000	607
22.40833	605
22.41667	603
22.42500	600
22.43333	598
22.44167	595
22.45000	592
22.45833	588
22.46667	585
22.47500	581
22.48333	577
22.49167	572
22.50000	567
22.50833	562
22.51667	556
22.52500	551
22.53333	545
22.54167	539
22.55000	532
22.55833	525
22.56667	518
22.57500	511
22.58333	503
22.59167	496
22.60000	489
22.60833	481
22.61667	474
22.62500	467
22.63333	459
22.64167	452
22.65000	444
22.65833	437
22.66667	430
22.67500	423
22.68333	416
22.69167	409
22.70000	402
22.70833	395
22.71667	389
22.72500	383
22.73333	378
22.74167	372
22.75000	367
22.75833	362
22.76667	358
22.77500	353
22.78333	350
22.79167	347
22.80000	344
22.80833	342
22.81667	339
22.82500	337
22.83333	336
22.84167	335
22.85000	333
22.85833	333
22.86667	332
22.87500	331
22.88333	332
22.89167	332
22.90000	332
22.90833	333
22.91667	334
22.92500	335
22.93333	337
22.94167	338
22.95000	340
22.95833	343
22.96667	345
22.97500	347
22.98333	350
22.99167	352
23.00000	355
23.00833	357
23.01667	359
23.02500	362
23.03333	365
23.04167	367
23.05000	370
23.05833	373
23.06667	375
23.07500	378
23.08333	380
23.09167	382
23.10000	385
23.10833	387
23.11667	389
23.12500	392
23.13333	393
23.14167	395
23.15000	397
23.15833	399
23.16667	401
23.17500	402
23.18333	403
23.19167	404
23.20000	405
23.20833	406
23.21667	406
23.22500	407
23.23333	407
23.24167	408
23.25000	408
23.25833	408
23.26667	408
23.27500	409
23.28333	409
23.29167	409
23.30000	408
23.30833	408
23.31667	407
23.32500	407
23.33333	406
23.34167	405
23.35000	405
23.35833	404
23.36667	403
23.37500	402
23.38333	402
23.39167	401
23.40000	400
23.40833	399
23.41667	398
23.42500	397
23.43333	396
23.44167	396
23.45000	395
23.45833	395
23.46667	394
23.47500	393
23.48333	392
23.49167	391
23.50000	390
23.50833	389
23.51667	389
23.52500	388
23.53333	387
23.54167	387
23.55000	386
23.55833	386
23.56667	385
23.57500	385
23.58333	385
23.59167	384
23.60000	383
23.60833	383
23.61667	383
23.62500	383
23.63333	383
23.64167	383
23.65000	383
23.65833	382
23.66667	382
23.67500	382
23.68333	382
23.69167	381
23.70000	381
23.70833	381
23.71667	381
23.72500	381
23.73333	381
23.74167	381
23.75000	380
23.75833	380
23.76667	381
23.77500	381
23.78333	381
23.79167	381
23.80000	381
23.80833	381
23.81667	380
23.82500	380
23.83333	380
23.84167	380
23.85000	380
23.85833	380
23.86667	380
23.87500	380
23.88333	380
23.89167	380
23.90000	380
23.90833	380
23.91667	380
23.92500	380
23.93333	380
23.94167	381
23.95000	381
23.95833	381
23.96667	381
23.97500	380
23.98333	380
23.99167	380
24.00000	379
24.00833	379
24.01667	379
24.02500	379
24.03333	379
24.04167	379
24.05000	378
24.05833	378
24.06667	378
24.07500	377
24.08333	377
24.09167	376
24.10000	375
24.10833	375
24.11667	374
24.12500	373
24.13333	372
24.14167	371
24.15000	370
24.15833	370
24.16667	369
24.17500	368
24.18333	366
24.19167	365
24.20000	364
24.20833	362
24.21667	360
24.22500	358
24.23333	356
24.24167	355
24.25000	353
24.25833	351
24.26667	348
24.27500	346
24.28333	344
24.29167	342
24.30000	340
24.30833	338
24.31667	335
24.32500	332
24.33333	330
24.34167	329
24.35000	326
24.35833	325
24.36667	323
24.37500	321
24.38333	319
24.39167	316
24.40000	314
24.40833	313
24.41667	311
24.42500	309
24.43333	308
24.44167	306
24.45000	305
24.45833	303
24.46667	302
24.47500	301
24.48333	301
24.49167	299
24.50000	298
24.50833	297
24.51667	296
24.52500	295
24.53333	294
24.54167	294
24.55000	293
24.55833	293
24.56667	292
24.57500	291
24.58333	291
24.59167	291
24.60000	291
24.60833	291
24.61667	291
24.62500	290
24.63333	290
24.64167	290
24.65000	290
24.65833	290
24.66667	290
24.67500	290
24.68333	290
24.69167	290
24.70000	291
24.70833	291
24.71667	292
24.72500	292
24.73333	292
24.74167	292
24.75000	292
24.75833	292
24.76667	293
24.77500	293
24.78333	293
24.79167	292
24.80000	292
24.80833	292
24.81667	292
24.82500	292
24.83333	292
24.84167	292
24.85000	292
24.85833	292
24.86667	292
24.87500	293
24.88333	293
24.89167	293
24.90000	293
24.90833	293
24.91667	292
24.92500	292
24.93333	291
24.94167	291
24.95000	291
24.95833	291
24.96667	291
24.97500	290
24.98333	290
24.99167	289
25.00000	289
25.00833	288
25.01667	288
25.02500	288
25.03333	287
25.04167	287
25.05000	287
25.05833	286
25.06667	285
25.07500	285
25.08333	285
25.09167	284
25.10000	284
25.10833	284
25.11667	284
25.12500	283
25.13333	283
25.14167	282
25.15000	281
25.15833	281
25.16667	281
25.17500	281
25.18333	280
25.19167	280
25.20000	280
25.20833	279
25.21667	278
25.22500	278
25.23333	277
25.24167	277
25.25000	277
25.25833	277
25.26667	276
25.27500	276
25.28333	276
25.29167	276
25.30000	277
25.30833	276
25.31667	276
25.32500	276
25.33333	277
25.34167	277
25.35000	277
25.35833	277
25.36667	277
25.37500	277
25.38333	278
25.39167	278
25.40000	278
25.40833	278
25.41667	279
25.42500	279
25.43333	279
25.44167	279
25.45000	280
25.45833	280
25.46667	280
25.47500	281
25.48333	281
25.49167	281
25.50000	281
25.50833	281
25.51667	281
25.52500	282
25.53333	282
25.54167	283
25.55000	284
25.55833	284
25.56667	284
25.57500	284
25.58333	285
25.59167	285
25.60000	286
25.60833	287
25.61667	287
25.62500	287
25.63333	288
25.64167	288
25.65000	288
25.65833	288
25.66667	288
25.67500	289
25.68333	289
25.69167	289
25.70000	289
25.70833	289
25.71667	290
25.72500	290
25.73333	290
25.74167	290
25.75000	290
25.75833	291
25.76667	292
25.77500	293
25.78333	293
25.79167	294
25.80000	294
25.80833	295
25.81667	295
25.82500	296
25.83333	296
25.84167	297
25.85000	298
25.85833	298
25.86667	299
25.87500	300
25.88333	301
25.89167	302
25.90000	303
25.90833	304
25.91667	305
25.92500	306
25.93333	308
25.94167	310
25.95000	311
25.95833	313
25.96667	315
25.97500	317
25.98333	320
25.99167	322
26.00000	325
26.00833	329
26.01667	332
26.02500	335
26.03333	339
26.04167	343
26.05000	348
26.05833	353
26.06667	358
26.07500	364
26.08333	370
26.09167	376
26.10000	383
26.10833	390
26.11667	398
26.12500	407
26.13333	416
26.14167	425
26.15000	435
26.15833	445
26.16667	456
26.17500	468
26.18333	481
26.19167	495
26.20000	510
26.20833	525
26.21667	541
26.22500	558
26.23333	575
26.24167	593
26.25000	612
26.25833	632
26.26667	652
26.27500	673
26.28333	695
26.29167	718
26.30000	742
26.30833	766
26.31667	791
26.32500	816
26.33333	842
26.34167	869
26.35000	896
26.35833	923
26.36667	950
26.37500	977
26.38333	1004
26.39167	1031
26.40000	1057
26.40833	1083
26.41667	1108
26.42500	1133
26.43333	1157
26.44167	1180
26.45000	1202
26.45833	1222
26.46667	1242
26.47500	1260
26.48333	1276
26.49167	1290
26.50000	1303
26.50833	1314
26.51667	1324
26.52500	1332
26.53333	1337
26.54167	1340
26.55000	1341
26.55833	1340
26.56667	1337
26.57500	1332
26.58333	1325
26.59167	1316
26.60000	1305
26.60833	1292
26.61667	1277
26.62500	1261
26.63333	1242
26.64167	1223
26.65000	1201
26.65833	1179
26.66667	1156
26.67500	1131
26.68333	1105
26.69167	1079
26.70000	1052
26.70833	1025
26.71667	997
26.72500	969
26.73333	941
26.74167	913
26.75000	884
26.75833	856
26.76667	828
26.77500	800
26.78333	772
26.79167	745
26.80000	719
26.80833	693
26.81667	667
26.82500	643
26.83333	619
26.84167	596
26.85000	574
26.85833	552
26.86667	532
26.87500	512
26.88333	493
26.89167	475
26.90000	457
26.90833	440
26.91667	424
26.92500	408
26.93333	394
26.94167	380
26.95000	367
26.95833	354
26.96667	342
26.97500	330
26.98333	320
26.99167	310
27.00000	300
27.00833	291
27.01667	283
27.02500	275
27.03333	268
27.04167	261
27.05000	253
27.05833	247
27.06667	241
27.07500	235
27.08333	230
27.09167	225
27.10000	220
27.10833	215
27.11667	211
27.12500	207
27.13333	203
27.14167	199
27.15000	195
27.15833	192
27.16667	189
27.17500	186
27.18333	184
27.19167	182
27.20000	179
27.20833	177
27.21667	174
27.22500	172
27.23333	170
27.24167	169
27.25000	167
27.25833	165
27.26667	164
27.27500	162
27.28333	160
27.29167	159
27.30000	157
27.30833	156
27.31667	154
27.32500	153
27.33333	152
27.34167	151
27.35000	150
27.35833	148
27.36667	147
27.37500	145
27.38333	143
27.39167	143
27.40000	142
27.40833	141
27.41667	140
27.42500	139
27.43333	138
27.44167	137
27.45000	136
27.45833	135
27.46667	134
27.47500	133
27.48333	132
27.49167	131
27.50000	130
27.50833	130
27.51667	129
27.52500	129
27.53333	128
27.54167	127
27.55000	126
27.55833	125
27.56667	124
27.57500	123
27.58333	122
27.59167	121
27.60000	121
27.60833	120
27.61667	120
27.62500	119
27.63333	119
27.64167	118
27.65000	118
27.65833	117
27.66667	116
27.67500	116
27.68333	115
27.69167	114
27.70000	114
27.70833	113
27.71667	112
27.72500	111
27.73333	111
27.74167	110
27.75000	109
27.75833	109
27.76667	108
27.77500	107
27.78333	107
27.79167	107
27.80000	106
27.80833	105
27.81667	104
27.82500	104
27.83333	103
27.84167	102
27.85000	102
27.85833	101
27.86667	100
27.87500	99
27.88333	99
27.89167	98
27.90000	97
27.90833	96
27.91667	95
27.92500	94
27.93333	93
27.94167	92
27.95000	92
27.95833	91
27.96667	91
27.97500	90
27.98333	90
27.99167	89
28.00000	88

