R.Time (min)	Intensity
0.00000	-16
0.00833	-16
0.01667	-11
0.02500	0
0.03333	0
0.04167	0
0.05000	0
0.05833	-0
0.06667	-1
0.07500	-1
0.08333	-1
0.09167	-1
0.10000	-1
0.10833	-1
0.11667	-1
0.12500	-0
0.13333	-0
0.14167	-0
0.15000	0
0.15833	1
0.16667	1
0.17500	1
0.18333	1
0.19167	1
0.20000	1
0.20833	1
0.21667	1
0.22500	1
0.23333	1
0.24167	2
0.25000	2
0.25833	2
0.26667	2
0.27500	2
0.28333	2
0.29167	2
0.30000	2
0.30833	2
0.31667	1
0.32500	1
0.33333	0
0.34167	0
0.35000	-0
0.35833	-0
0.36667	-0
0.37500	-1
0.38333	-1
0.39167	-1
0.40000	-1
0.40833	-2
0.41667	-2
0.42500	-1
0.43333	-1
0.44167	-1
0.45000	-2
0.45833	-2
0.46667	-2
0.47500	-2
0.48333	-3
0.49167	-3
0.50000	-4
0.50833	-4
0.51667	-5
0.52500	-5
0.53333	-5
0.54167	-5
0.55000	-5
0.55833	-5
0.56667	-5
0.57500	-5
0.58333	-5
0.59167	-5
0.60000	-5
0.60833	-5
0.61667	-5
0.62500	-5
0.63333	-6
0.64167	-6
0.65000	-6
0.65833	-6
0.66667	-6
0.67500	-6
0.68333	-6
0.69167	-6
0.70000	-6
0.70833	-6
0.71667	-7
0.72500	-7
0.73333	-7
0.74167	-6
0.75000	-6
0.75833	-6
0.76667	-6
0.77500	-6
0.78333	-6
0.79167	-6
0.80000	-6
0.80833	-6
0.81667	-6
0.82500	-6
0.83333	-6
0.84167	-6
0.85000	-7
0.85833	-7
0.86667	-7
0.87500	-7
0.88333	-7
0.89167	-7
0.90000	-7
0.90833	-7
0.91667	-7
0.92500	-8
0.93333	-8
0.94167	-9
0.95000	-9
0.95833	-9
0.96667	-9
0.97500	-9
0.98333	-9
0.99167	-9
1.00000	-9
1.00833	-10
1.01667	-10
1.02500	-10
1.03333	-11
1.04167	-11
1.05000	-11
1.05833	-11
1.06667	-11
1.07500	-11
1.08333	-12
1.09167	-12
1.10000	-12
1.10833	-11
1.11667	-11
1.12500	-11
1.13333	-12
1.14167	-12
1.15000	-12
1.15833	-12
1.16667	-12
1.17500	-12
1.18333	-13
1.19167	-13
1.20000	-13
1.20833	-14
1.21667	-14
1.22500	-14
1.23333	-14
1.24167	-14
1.25000	-14
1.25833	-15
1.26667	-14
1.27500	-14
1.28333	-14
1.29167	-14
1.30000	-14
1.30833	-15
1.31667	-15
1.32500	-15
1.33333	-16
1.34167	-16
1.35000	-16
1.35833	-16
1.36667	-16
1.37500	-16
1.38333	-16
1.39167	-16
1.40000	-16
1.40833	-16
1.41667	-17
1.42500	-17
1.43333	-16
1.44167	-16
1.45000	-16
1.45833	-16
1.46667	-16
1.47500	-16
1.48333	-16
1.49167	-16
1.50000	-15
1.50833	-15
1.51667	-14
1.52500	-14
1.53333	-15
1.54167	-15
1.55000	-15
1.55833	-15
1.56667	-15
1.57500	-15
1.58333	-15
1.59167	-15
1.60000	-15
1.60833	-15
1.61667	-15
1.62500	-15
1.63333	-14
1.64167	-14
1.65000	-14
1.65833	-14
1.66667	-14
1.67500	-15
1.68333	-15
1.69167	-15
1.70000	-15
1.70833	-15
1.71667	-14
1.72500	-14
1.73333	-14
1.74167	-14
1.75000	-14
1.75833	-14
1.76667	-14
1.77500	-14
1.78333	-14
1.79167	-14
1.80000	-14
1.80833	-14
1.81667	-14
1.82500	-14
1.83333	-14
1.84167	-14
1.85000	-14
1.85833	-14
1.86667	-14
1.87500	-14
1.88333	-14
1.89167	-14
1.90000	-14
1.90833	-14
1.91667	-14
1.92500	-14
1.93333	-14
1.94167	-14
1.95000	-14
1.95833	-14
1.96667	-14
1.97500	-14
1.98333	-14
1.99167	-14
2.00000	-14
2.00833	-13
2.01667	-13
2.02500	-13
2.03333	-13
2.04167	-13
2.05000	-13
2.05833	-13
2.06667	-14
2.07500	-13
2.08333	-13
2.09167	-13
2.10000	-13
2.10833	-12
2.11667	-12
2.12500	-12
2.13333	-12
2.14167	-11
2.15000	-11
2.15833	-11
2.16667	-11
2.17500	-11
2.18333	-10
2.19167	-10
2.20000	-10
2.20833	-9
2.21667	-9
2.22500	-8
2.23333	-8
2.24167	-7
2.25000	-6
2.25833	-6
2.26667	-5
2.27500	-4
2.28333	-4
2.29167	-3
2.30000	-2
2.30833	-1
2.31667	1
2.32500	2
2.33333	3
2.34167	5
2.35000	6
2.35833	8
2.36667	10
2.37500	12
2.38333	14
2.39167	16
2.40000	19
2.40833	21
2.41667	24
2.42500	27
2.43333	30
2.44167	33
2.45000	36
2.45833	40
2.46667	44
2.47500	48
2.48333	52
2.49167	57
2.50000	62
2.50833	67
2.51667	72
2.52500	77
2.53333	83
2.54167	88
2.55000	94
2.55833	101
2.56667	108
2.57500	115
2.58333	123
2.59167	131
2.60000	140
2.60833	150
2.61667	160
2.62500	171
2.63333	182
2.64167	193
2.65000	206
2.65833	219
2.66667	232
2.67500	247
2.68333	261
2.69167	277
2.70000	294
2.70833	311
2.71667	329
2.72500	348
2.73333	368
2.74167	389
2.75000	412
2.75833	435
2.76667	460
2.77500	486
2.78333	513
2.79167	542
2.80000	572
2.80833	603
2.81667	636
2.82500	670
2.83333	706
2.84167	745
2.85000	785
2.85833	827
2.86667	872
2.87500	918
2.88333	966
2.89167	1016
2.90000	1069
2.90833	1124
2.91667	1181
2.92500	1241
2.93333	1303
2.94167	1367
2.95000	1434
2.95833	1504
2.96667	1576
2.97500	1650
2.98333	1727
2.99167	1807
3.00000	1888
3.00833	1972
3.01667	2058
3.02500	2146
3.03333	2236
3.04167	2328
3.05000	2421
3.05833	2515
3.06667	2611
3.07500	2707
3.08333	2805
3.09167	2903
3.10000	3001
3.10833	3099
3.11667	3197
3.12500	3295
3.13333	3391
3.14167	3486
3.15000	3579
3.15833	3671
3.16667	3760
3.17500	3846
3.18333	3929
3.19167	4010
3.20000	4087
3.20833	4160
3.21667	4229
3.22500	4293
3.23333	4353
3.24167	4407
3.25000	4456
3.25833	4500
3.26667	4538
3.27500	4570
3.28333	4597
3.29167	4618
3.30000	4632
3.30833	4641
3.31667	4642
3.32500	4638
3.33333	4628
3.34167	4612
3.35000	4589
3.35833	4561
3.36667	4526
3.37500	4486
3.38333	4440
3.39167	4389
3.40000	4333
3.40833	4272
3.41667	4207
3.42500	4137
3.43333	4063
3.44167	3986
3.45000	3905
3.45833	3821
3.46667	3735
3.47500	3646
3.48333	3555
3.49167	3462
3.50000	3367
3.50833	3270
3.51667	3174
3.52500	3076
3.53333	2979
3.54167	2881
3.55000	2784
3.55833	2687
3.56667	2591
3.57500	2496
3.58333	2402
3.59167	2309
3.60000	2217
3.60833	2128
3.61667	2040
3.62500	1954
3.63333	1870
3.64167	1789
3.65000	1709
3.65833	1632
3.66667	1556
3.67500	1484
3.68333	1414
3.69167	1348
3.70000	1284
3.70833	1222
3.71667	1163
3.72500	1106
3.73333	1052
3.74167	999
3.75000	949
3.75833	902
3.76667	857
3.77500	814
3.78333	773
3.79167	734
3.80000	698
3.80833	663
3.81667	630
3.82500	600
3.83333	571
3.84167	543
3.85000	518
3.85833	493
3.86667	471
3.87500	449
3.88333	429
3.89167	411
3.90000	393
3.90833	377
3.91667	361
3.92500	347
3.93333	333
3.94167	321
3.95000	309
3.95833	298
3.96667	287
3.97500	278
3.98333	269
3.99167	260
4.00000	252
4.00833	244
4.01667	236
4.02500	229
4.03333	222
4.04167	216
4.05000	209
4.05833	203
4.06667	198
4.07500	192
4.08333	186
4.09167	181
4.10000	176
4.10833	171
4.11667	167
4.12500	162
4.13333	157
4.14167	152
4.15000	148
4.15833	144
4.16667	139
4.17500	136
4.18333	132
4.19167	128
4.20000	124
4.20833	120
4.21667	116
4.22500	112
4.23333	107
4.24167	103
4.25000	99
4.25833	96
4.26667	92
4.27500	89
4.28333	85
4.29167	82
4.30000	78
4.30833	75
4.31667	72
4.32500	68
4.33333	65
4.34167	62
4.35000	59
4.35833	56
4.36667	53
4.37500	50
4.38333	48
4.39167	45
4.40000	43
4.40833	41
4.41667	39
4.42500	36
4.43333	35
4.44167	33
4.45000	31
4.45833	29
4.46667	28
4.47500	27
4.48333	26
4.49167	25
4.50000	24
4.50833	23
4.51667	22
4.52500	21
4.53333	20
4.54167	19
4.55000	19
4.55833	18
4.56667	18
4.57500	18
4.58333	17
4.59167	17
4.60000	17
4.60833	17
4.61667	17
4.62500	18
4.63333	18
4.64167	18
4.65000	18
4.65833	19
4.66667	19
4.67500	19
4.68333	20
4.69167	20
4.70000	21
4.70833	21
4.71667	22
4.72500	24
4.73333	24
4.74167	25
4.75000	26
4.75833	26
4.76667	27
4.77500	28
4.78333	29
4.79167	29
4.80000	30
4.80833	31
4.81667	32
4.82500	32
4.83333	33
4.84167	34
4.85000	34
4.85833	35
4.86667	36
4.87500	37
4.88333	38
4.89167	38
4.90000	38
4.90833	39
4.91667	39
4.92500	39
4.93333	40
4.94167	40
4.95000	41
4.95833	41
4.96667	41
4.97500	41
4.98333	42
4.99167	42
5.00000	42
5.00833	42
5.01667	42
5.02500	42
5.03333	42
5.04167	41
5.05000	41
5.05833	40
5.06667	40
5.07500	40
5.08333	39
5.09167	39
5.10000	38
5.10833	38
5.11667	37
5.12500	37
5.13333	36
5.14167	36
5.15000	35
5.15833	35
5.16667	34
5.17500	34
5.18333	33
5.19167	32
5.20000	31
5.20833	30
5.21667	29
5.22500	29
5.23333	28
5.24167	28
5.25000	27
5.25833	26
5.26667	25
5.27500	23
5.28333	23
5.29167	22
5.30000	21
5.30833	20
5.31667	19
5.32500	19
5.33333	18
5.34167	17
5.35000	16
5.35833	15
5.36667	14
5.37500	13
5.38333	12
5.39167	11
5.40000	10
5.40833	9
5.41667	9
5.42500	8
5.43333	7
5.44167	7
5.45000	6
5.45833	6
5.46667	5
5.47500	5
5.48333	4
5.49167	4
5.50000	3
5.50833	2
5.51667	2
5.52500	1
5.53333	1
5.54167	0
5.55000	-0
5.55833	-1
5.56667	-1
5.57500	-2
5.58333	-3
5.59167	-3
5.60000	-4
5.60833	-5
5.61667	-5
5.62500	-6
5.63333	-6
5.64167	-7
5.65000	-8
5.65833	-9
5.66667	-9
5.67500	-10
5.68333	-10
5.69167	-11
5.70000	-11
5.70833	-12
5.71667	-12
5.72500	-12
5.73333	-13
5.74167	-13
5.75000	-13
5.75833	-13
5.76667	-14
5.77500	-14
5.78333	-14
5.79167	-15
5.80000	-15
5.80833	-16
5.81667	-16
5.82500	-16
5.83333	-17
5.84167	-17
5.85000	-17
5.85833	-17
5.86667	-17
5.87500	-17
5.88333	-18
5.89167	-18
5.90000	-19
5.90833	-19
5.91667	-19
5.92500	-19
5.93333	-19
5.94167	-19
5.95000	-19
5.95833	-19
5.96667	-19
5.97500	-19
5.98333	-19
5.99167	-20
6.00000	-20
6.00833	-20
6.01667	-20
6.02500	-20
6.03333	-20
6.04167	-20
6.05000	-20
6.05833	-19
6.06667	-19
6.07500	-19
6.08333	-19
6.09167	-19
6.10000	-19
6.10833	-19
6.11667	-19
6.12500	-19
6.13333	-18
6.14167	-18
6.15000	-18
6.15833	-18
6.16667	-18
6.17500	-18
6.18333	-18
6.19167	-18
6.20000	-17
6.20833	-17
6.21667	-16
6.22500	-17
6.23333	-17
6.24167	-17
6.25000	-17
6.25833	-17
6.26667	-17
6.27500	-17
6.28333	-17
6.29167	-17
6.30000	-17
6.30833	-17
6.31667	-17
6.32500	-16
6.33333	-16
6.34167	-16
6.35000	-16
6.35833	-16
6.36667	-16
6.37500	-16
6.38333	-16
6.39167	-16
6.40000	-16
6.40833	-16
6.41667	-16
6.42500	-16
6.43333	-17
6.44167	-17
6.45000	-17
6.45833	-17
6.46667	-17
6.47500	-17
6.48333	-17
6.49167	-17
6.50000	-18
6.50833	-18
6.51667	-18
6.52500	-18
6.53333	-19
6.54167	-19
6.55000	-20
6.55833	-20
6.56667	-20
6.57500	-20
6.58333	-20
6.59167	-21
6.60000	-21
6.60833	-21
6.61667	-21
6.62500	-20
6.63333	-21
6.64167	-21
6.65000	-21
6.65833	-21
6.66667	-21
6.67500	-21
6.68333	-21
6.69167	-21
6.70000	-21
6.70833	-22
6.71667	-22
6.72500	-22
6.73333	-22
6.74167	-22
6.75000	-22
6.75833	-22
6.76667	-22
6.77500	-22
6.78333	-23
6.79167	-23
6.80000	-23
6.80833	-23
6.81667	-23
6.82500	-23
6.83333	-23
6.84167	-23
6.85000	-23
6.85833	-23
6.86667	-23
6.87500	-23
6.88333	-22
6.89167	-22
6.90000	-22
6.90833	-22
6.91667	-21
6.92500	-21
6.93333	-20
6.94167	-20
6.95000	-20
6.95833	-20
6.96667	-20
6.97500	-21
6.98333	-21
6.99167	-21
7.00000	-22
7.00833	-22
7.01667	-22
7.02500	-22
7.03333	-21
7.04167	-21
7.05000	-20
7.05833	-19
7.06667	-19
7.07500	-17
7.08333	-16
7.09167	-13
7.10000	-11
7.10833	-7
7.11667	-2
7.12500	4
7.13333	11
7.14167	19
7.15000	28
7.15833	40
7.16667	54
7.17500	69
7.18333	87
7.19167	106
7.20000	128
7.20833	151
7.21667	177
7.22500	204
7.23333	232
7.24167	261
7.25000	290
7.25833	318
7.26667	344
7.27500	367
7.28333	384
7.29167	393
7.30000	393
7.30833	383
7.31667	361
7.32500	328
7.33333	288
7.34167	248
7.35000	215
7.35833	201
7.36667	222
7.37500	296
7.38333	443
7.39167	683
7.40000	1036
7.40833	1522
7.41667	2156
7.42500	2949
7.43333	3907
7.44167	5031
7.45000	6310
7.45833	7728
7.46667	9258
7.47500	10864
7.48333	12498
7.49167	14106
7.50000	15625
7.50833	16991
7.51667	18142
7.52500	19022
7.53333	19591
7.54167	19824
7.55000	19717
7.55833	19286
7.56667	18566
7.57500	17606
7.58333	16462
7.59167	15196
7.60000	13866
7.60833	12525
7.61667	11218
7.62500	9978
7.63333	8831
7.64167	7789
7.65000	6861
7.65833	6044
7.66667	5334
7.67500	4723
7.68333	4199
7.69167	3754
7.70000	3375
7.70833	3053
7.71667	2779
7.72500	2543
7.73333	2340
7.74167	2162
7.75000	2007
7.75833	1869
7.76667	1747
7.77500	1636
7.78333	1537
7.79167	1446
7.80000	1362
7.80833	1285
7.81667	1214
7.82500	1148
7.83333	1085
7.84167	1027
7.85000	972
7.85833	919
7.86667	869
7.87500	822
7.88333	777
7.89167	735
7.90000	695
7.90833	657
7.91667	622
7.92500	589
7.93333	559
7.94167	531
7.95000	506
7.95833	483
7.96667	464
7.97500	447
7.98333	432
7.99167	419
8.00000	408
8.00833	398
8.01667	390
8.02500	382
8.03333	376
8.04167	370
8.05000	364
8.05833	357
8.06667	351
8.07500	344
8.08333	337
8.09167	330
8.10000	323
8.10833	316
8.11667	308
8.12500	301
8.13333	293
8.14167	285
8.15000	278
8.15833	272
8.16667	265
8.17500	259
8.18333	252
8.19167	246
8.20000	240
8.20833	235
8.21667	231
8.22500	226
8.23333	222
8.24167	218
8.25000	215
8.25833	212
8.26667	210
8.27500	207
8.28333	206
8.29167	204
8.30000	203
8.30833	202
8.31667	201
8.32500	201
8.33333	200
8.34167	200
8.35000	199
8.35833	199
8.36667	198
8.37500	198
8.38333	198
8.39167	197
8.40000	197
8.40833	196
8.41667	196
8.42500	195
8.43333	194
8.44167	193
8.45000	192
8.45833	191
8.46667	191
8.47500	189
8.48333	188
8.49167	187
8.50000	186
8.50833	185
8.51667	183
8.52500	182
8.53333	181
8.54167	180
8.55000	179
8.55833	178
8.56667	177
8.57500	177
8.58333	178
8.59167	180
8.60000	182
8.60833	185
8.61667	190
8.62500	195
8.63333	202
8.64167	211
8.65000	222
8.65833	235
8.66667	250
8.67500	266
8.68333	284
8.69167	305
8.70000	327
8.70833	350
8.71667	375
8.72500	399
8.73333	424
8.74167	448
8.75000	470
8.75833	491
8.76667	510
8.77500	527
8.78333	542
8.79167	553
8.80000	562
8.80833	568
8.81667	572
8.82500	574
8.83333	574
8.84167	574
8.85000	574
8.85833	575
8.86667	577
8.87500	582
8.88333	590
8.89167	603
8.90000	621
8.90833	647
8.91667	679
8.92500	721
8.93333	772
8.94167	832
8.95000	904
8.95833	985
8.96667	1076
8.97500	1177
8.98333	1285
8.99167	1400
9.00000	1520
9.00833	1642
9.01667	1765
9.02500	1885
9.03333	2000
9.04167	2108
9.05000	2206
9.05833	2291
9.06667	2363
9.07500	2419
9.08333	2458
9.09167	2479
9.10000	2484
9.10833	2471
9.11667	2443
9.12500	2399
9.13333	2341
9.14167	2271
9.15000	2192
9.15833	2104
9.16667	2009
9.17500	1911
9.18333	1810
9.19167	1709
9.20000	1608
9.20833	1509
9.21667	1414
9.22500	1322
9.23333	1236
9.24167	1155
9.25000	1080
9.25833	1011
9.26667	948
9.27500	891
9.28333	839
9.29167	793
9.30000	752
9.30833	716
9.31667	684
9.32500	657
9.33333	634
9.34167	615
9.35000	599
9.35833	587
9.36667	578
9.37500	572
9.38333	571
9.39167	573
9.40000	579
9.40833	590
9.41667	607
9.42500	631
9.43333	664
9.44167	707
9.45000	762
9.45833	832
9.46667	920
9.47500	1030
9.48333	1164
9.49167	1330
9.50000	1530
9.50833	1770
9.51667	2056
9.52500	2392
9.53333	2785
9.54167	3238
9.55000	3755
9.55833	4337
9.56667	4986
9.57500	5701
9.58333	6478
9.59167	7313
9.60000	8199
9.60833	9127
9.61667	10084
9.62500	11059
9.63333	12038
9.64167	13005
9.65000	13945
9.65833	14843
9.66667	15684
9.67500	16455
9.68333	17144
9.69167	17742
9.70000	18242
9.70833	18639
9.71667	18932
9.72500	19121
9.73333	19210
9.74167	19207
9.75000	19118
9.75833	18953
9.76667	18725
9.77500	18444
9.78333	18124
9.79167	17777
9.80000	17417
9.80833	17053
9.81667	16698
9.82500	16361
9.83333	16051
9.84167	15774
9.85000	15538
9.85833	15347
9.86667	15203
9.87500	15110
9.88333	15069
9.89167	15080
9.90000	15143
9.90833	15257
9.91667	15420
9.92500	15629
9.93333	15884
9.94167	16181
9.95000	16516
9.95833	16887
9.96667	17291
9.97500	17725
9.98333	18185
9.99167	18668
10.00000	19170
10.00833	19688
10.01667	20219
10.02500	20758
10.03333	21300
10.04167	21837
10.05000	22356
10.05833	22841
10.06667	23269
10.07500	23608
10.08333	23824
10.09167	23875
10.10000	23725
10.10833	23344
10.11667	22713
10.12500	21832
10.13333	20718
10.14167	19409
10.15000	17951
10.15833	16400
10.16667	14812
10.17500	13241
10.18333	11731
10.19167	10316
10.20000	9017
10.20833	7848
10.21667	6812
10.22500	5906
10.23333	5124
10.24167	4453
10.25000	3882
10.25833	3400
10.26667	2993
10.27500	2651
10.28333	2363
10.29167	2120
10.30000	1915
10.30833	1741
10.31667	1592
10.32500	1465
10.33333	1354
10.34167	1258
10.35000	1173
10.35833	1098
10.36667	1031
10.37500	970
10.38333	915
10.39167	864
10.40000	817
10.40833	774
10.41667	734
10.42500	698
10.43333	664
10.44167	632
10.45000	604
10.45833	577
10.46667	553
10.47500	531
10.48333	511
10.49167	494
10.50000	479
10.50833	466
10.51667	454
10.52500	445
10.53333	437
10.54167	430
10.55000	425
10.55833	421
10.56667	418
10.57500	416
10.58333	415
10.59167	413
10.60000	412
10.60833	410
10.61667	408
10.62500	405
10.63333	401
10.64167	396
10.65000	391
10.65833	384
10.66667	377
10.67500	368
10.68333	359
10.69167	349
10.70000	339
10.70833	327
10.71667	315
10.72500	303
10.73333	291
10.74167	279
10.75000	268
10.75833	257
10.76667	246
10.77500	236
10.78333	227
10.79167	218
10.80000	210
10.80833	202
10.81667	196
10.82500	190
10.83333	184
10.84167	180
10.85000	175
10.85833	172
10.86667	169
10.87500	166
10.88333	164
10.89167	163
10.90000	161
10.90833	160
10.91667	159
10.92500	158
10.93333	157
10.94167	155
10.95000	154
10.95833	152
10.96667	150
10.97500	148
10.98333	146
10.99167	144
11.00000	142
11.00833	141
11.01667	139
11.02500	138
11.03333	137
11.04167	135
11.05000	134
11.05833	134
11.06667	133
11.07500	133
11.08333	133
11.09167	133
11.10000	134
11.10833	135
11.11667	136
11.12500	138
11.13333	139
11.14167	141
11.15000	143
11.15833	145
11.16667	148
11.17500	151
11.18333	155
11.19167	158
11.20000	162
11.20833	166
11.21667	170
11.22500	174
11.23333	178
11.24167	182
11.25000	186
11.25833	191
11.26667	195
11.27500	199
11.28333	202
11.29167	206
11.30000	209
11.30833	212
11.31667	214
11.32500	216
11.33333	217
11.34167	218
11.35000	219
11.35833	220
11.36667	220
11.37500	219
11.38333	218
11.39167	216
11.40000	214
11.40833	212
11.41667	210
11.42500	206
11.43333	203
11.44167	200
11.45000	196
11.45833	192
11.46667	188
11.47500	184
11.48333	180
11.49167	176
11.50000	172
11.50833	168
11.51667	165
11.52500	161
11.53333	158
11.54167	155
11.55000	152
11.55833	150
11.56667	147
11.57500	145
11.58333	144
11.59167	142
11.60000	141
11.60833	141
11.61667	140
11.62500	139
11.63333	138
11.64167	137
11.65000	137
11.65833	136
11.66667	136
11.67500	136
11.68333	136
11.69167	135
11.70000	135
11.70833	134
11.71667	134
11.72500	134
11.73333	134
11.74167	134
11.75000	134
11.75833	134
11.76667	133
11.77500	133
11.78333	132
11.79167	131
11.80000	130
11.80833	129
11.81667	128
11.82500	126
11.83333	125
11.84167	123
11.85000	122
11.85833	120
11.86667	118
11.87500	117
11.88333	115
11.89167	113
11.90000	110
11.90833	108
11.91667	106
11.92500	103
11.93333	101
11.94167	99
11.95000	97
11.95833	96
11.96667	94
11.97500	93
11.98333	93
11.99167	92
12.00000	92
12.00833	92
12.01667	92
12.02500	92
12.03333	92
12.04167	93
12.05000	94
12.05833	95
12.06667	96
12.07500	97
12.08333	98
12.09167	100
12.10000	101
12.10833	102
12.11667	103
12.12500	104
12.13333	106
12.14167	107
12.15000	108
12.15833	109
12.16667	110
12.17500	110
12.18333	111
12.19167	111
12.20000	111
12.20833	111
12.21667	111
12.22500	112
12.23333	112
12.24167	112
12.25000	112
12.25833	112
12.26667	111
12.27500	110
12.28333	109
12.29167	108
12.30000	107
12.30833	106
12.31667	104
12.32500	103
12.33333	101
12.34167	99
12.35000	98
12.35833	96
12.36667	94
12.37500	92
12.38333	90
12.39167	88
12.40000	87
12.40833	85
12.41667	83
12.42500	81
12.43333	79
12.44167	78
12.45000	76
12.45833	74
12.46667	73
12.47500	71
12.48333	70
12.49167	69
12.50000	68
12.50833	66
12.51667	65
12.52500	65
12.53333	64
12.54167	64
12.55000	63
12.55833	63
12.56667	62
12.57500	62
12.58333	62
12.59167	62
12.60000	62
12.60833	62
12.61667	62
12.62500	62
12.63333	63
12.64167	63
12.65000	64
12.65833	65
12.66667	66
12.67500	67
12.68333	68
12.69167	68
12.70000	69
12.70833	70
12.71667	71
12.72500	72
12.73333	73
12.74167	74
12.75000	75
12.75833	76
12.76667	77
12.77500	78
12.78333	80
12.79167	80
12.80000	81
12.80833	82
12.81667	83
12.82500	84
12.83333	85
12.84167	86
12.85000	87
12.85833	88
12.86667	90
12.87500	91
12.88333	92
12.89167	94
12.90000	95
12.90833	97
12.91667	99
12.92500	101
12.93333	102
12.94167	104
12.95000	107
12.95833	109
12.96667	112
12.97500	114
12.98333	116
12.99167	119
13.00000	121
13.00833	123
13.01667	125
13.02500	127
13.03333	129
13.04167	130
13.05000	132
13.05833	133
13.06667	134
13.07500	134
13.08333	135
13.09167	135
13.10000	135
13.10833	135
13.11667	134
13.12500	133
13.13333	132
13.14167	131
13.15000	130
13.15833	128
13.16667	127
13.17500	126
13.18333	125
13.19167	123
13.20000	121
13.20833	120
13.21667	119
13.22500	117
13.23333	116
13.24167	115
13.25000	114
13.25833	114
13.26667	113
13.27500	112
13.28333	112
13.29167	111
13.30000	112
13.30833	112
13.31667	112
13.32500	112
13.33333	113
13.34167	113
13.35000	114
13.35833	115
13.36667	116
13.37500	117
13.38333	117
13.39167	118
13.40000	119
13.40833	119
13.41667	120
13.42500	122
13.43333	123
13.44167	123
13.45000	124
13.45833	125
13.46667	126
13.47500	126
13.48333	127
13.49167	128
13.50000	129
13.50833	130
13.51667	132
13.52500	133
13.53333	135
13.54167	137
13.55000	138
13.55833	140
13.56667	142
13.57500	145
13.58333	148
13.59167	151
13.60000	154
13.60833	158
13.61667	162
13.62500	166
13.63333	171
13.64167	176
13.65000	181
13.65833	187
13.66667	192
13.67500	198
13.68333	204
13.69167	211
13.70000	217
13.70833	223
13.71667	230
13.72500	236
13.73333	243
13.74167	249
13.75000	255
13.75833	260
13.76667	266
13.77500	272
13.78333	278
13.79167	284
13.80000	290
13.80833	296
13.81667	303
13.82500	310
13.83333	318
13.84167	325
13.85000	333
13.85833	342
13.86667	351
13.87500	361
13.88333	371
13.89167	380
13.90000	390
13.90833	400
13.91667	410
13.92500	418
13.93333	426
13.94167	434
13.95000	442
13.95833	448
13.96667	453
13.97500	457
13.98333	461
13.99167	462
14.00000	463
14.00833	462
14.01667	461
14.02500	458
14.03333	454
14.04167	449
14.05000	442
14.05833	436
14.06667	429
14.07500	421
14.08333	413
14.09167	404
14.10000	395
14.10833	387
14.11667	379
14.12500	371
14.13333	363
14.14167	356
14.15000	348
14.15833	341
14.16667	334
14.17500	328
14.18333	322
14.19167	318
14.20000	313
14.20833	309
14.21667	306
14.22500	303
14.23333	300
14.24167	298
14.25000	296
14.25833	294
14.26667	293
14.27500	292
14.28333	291
14.29167	290
14.30000	290
14.30833	289
14.31667	289
14.32500	289
14.33333	289
14.34167	290
14.35000	290
14.35833	291
14.36667	291
14.37500	292
14.38333	292
14.39167	293
14.40000	295
14.40833	296
14.41667	297
14.42500	298
14.43333	299
14.44167	300
14.45000	301
14.45833	302
14.46667	303
14.47500	304
14.48333	304
14.49167	305
14.50000	306
14.50833	306
14.51667	307
14.52500	307
14.53333	308
14.54167	308
14.55000	308
14.55833	308
14.56667	308
14.57500	309
14.58333	308
14.59167	308
14.60000	307
14.60833	306
14.61667	306
14.62500	305
14.63333	305
14.64167	305
14.65000	304
14.65833	303
14.66667	303
14.67500	302
14.68333	301
14.69167	300
14.70000	299
14.70833	297
14.71667	296
14.72500	295
14.73333	294
14.74167	293
14.75000	292
14.75833	291
14.76667	290
14.77500	288
14.78333	287
14.79167	286
14.80000	285
14.80833	284
14.81667	282
14.82500	281
14.83333	280
14.84167	278
14.85000	277
14.85833	276
14.86667	275
14.87500	274
14.88333	273
14.89167	273
14.90000	272
14.90833	272
14.91667	271
14.92500	271
14.93333	270
14.94167	270
14.95000	270
14.95833	270
14.96667	271
14.97500	271
14.98333	272
14.99167	272
15.00000	272
15.00833	273
15.01667	274
15.02500	275
15.03333	276
15.04167	278
15.05000	280
15.05833	283
15.06667	286
15.07500	290
15.08333	294
15.09167	298
15.10000	304
15.10833	310
15.11667	316
15.12500	323
15.13333	330
15.14167	339
15.15000	348
15.15833	357
15.16667	366
15.17500	376
15.18333	387
15.19167	397
15.20000	407
15.20833	417
15.21667	426
15.22500	435
15.23333	444
15.24167	451
15.25000	458
15.25833	464
15.26667	468
15.27500	472
15.28333	474
15.29167	475
15.30000	474
15.30833	471
15.31667	467
15.32500	463
15.33333	457
15.34167	450
15.35000	442
15.35833	433
15.36667	423
15.37500	412
15.38333	401
15.39167	389
15.40000	378
15.40833	366
15.41667	353
15.42500	341
15.43333	329
15.44167	317
15.45000	306
15.45833	295
15.46667	284
15.47500	274
15.48333	264
15.49167	255
15.50000	247
15.50833	238
15.51667	230
15.52500	222
15.53333	216
15.54167	210
15.55000	204
15.55833	198
15.56667	193
15.57500	188
15.58333	184
15.59167	179
15.60000	176
15.60833	172
15.61667	169
15.62500	166
15.63333	164
15.64167	161
15.65000	159
15.65833	157
15.66667	155
15.67500	153
15.68333	152
15.69167	150
15.70000	149
15.70833	147
15.71667	146
15.72500	145
15.73333	144
15.74167	143
15.75000	143
15.75833	142
15.76667	142
15.77500	142
15.78333	141
15.79167	141
15.80000	141
15.80833	141
15.81667	141
15.82500	142
15.83333	142
15.84167	143
15.85000	143
15.85833	143
15.86667	144
15.87500	145
15.88333	146
15.89167	147
15.90000	149
15.90833	151
15.91667	153
15.92500	156
15.93333	159
15.94167	162
15.95000	166
15.95833	170
15.96667	175
15.97500	180
15.98333	186
15.99167	192
16.00000	199
16.00833	207
16.01667	215
16.02500	224
16.03333	234
16.04167	243
16.05000	253
16.05833	263
16.06667	274
16.07500	285
16.08333	295
16.09167	306
16.10000	316
16.10833	325
16.11667	334
16.12500	341
16.13333	348
16.14167	353
16.15000	358
16.15833	363
16.16667	366
16.17500	368
16.18333	368
16.19167	368
16.20000	366
16.20833	364
16.21667	361
16.22500	358
16.23333	354
16.24167	350
16.25000	344
16.25833	339
16.26667	334
16.27500	329
16.28333	324
16.29167	319
16.30000	314
16.30833	311
16.31667	308
16.32500	307
16.33333	306
16.34167	306
16.35000	306
16.35833	308
16.36667	310
16.37500	314
16.38333	319
16.39167	326
16.40000	333
16.40833	342
16.41667	352
16.42500	363
16.43333	376
16.44167	391
16.45000	407
16.45833	424
16.46667	442
16.47500	462
16.48333	483
16.49167	506
16.50000	531
16.50833	557
16.51667	584
16.52500	613
16.53333	642
16.54167	672
16.55000	702
16.55833	733
16.56667	763
16.57500	793
16.58333	822
16.59167	850
16.60000	877
16.60833	902
16.61667	925
16.62500	946
16.63333	964
16.64167	980
16.65000	992
16.65833	1001
16.66667	1007
16.67500	1009
16.68333	1008
16.69167	1004
16.70000	996
16.70833	984
16.71667	969
16.72500	952
16.73333	933
16.74167	912
16.75000	888
16.75833	862
16.76667	835
16.77500	807
16.78333	778
16.79167	749
16.80000	719
16.80833	689
16.81667	660
16.82500	631
16.83333	602
16.84167	575
16.85000	549
16.85833	523
16.86667	499
16.87500	477
16.88333	455
16.89167	434
16.90000	414
16.90833	395
16.91667	377
16.92500	360
16.93333	345
16.94167	330
16.95000	317
16.95833	304
16.96667	293
16.97500	282
16.98333	272
16.99167	263
17.00000	254
17.00833	246
17.01667	238
17.02500	231
17.03333	225
17.04167	219
17.05000	213
17.05833	208
17.06667	203
17.07500	198
17.08333	193
17.09167	189
17.10000	185
17.10833	182
17.11667	178
17.12500	175
17.13333	172
17.14167	169
17.15000	166
17.15833	163
17.16667	161
17.17500	159
17.18333	157
17.19167	155
17.20000	153
17.20833	152
17.21667	150
17.22500	149
17.23333	148
17.24167	146
17.25000	144
17.25833	143
17.26667	141
17.27500	140
17.28333	139
17.29167	138
17.30000	137
17.30833	136
17.31667	135
17.32500	133
17.33333	133
17.34167	132
17.35000	131
17.35833	131
17.36667	130
17.37500	130
17.38333	130
17.39167	130
17.40000	129
17.40833	129
17.41667	129
17.42500	129
17.43333	129
17.44167	129
17.45000	130
17.45833	130
17.46667	131
17.47500	131
17.48333	132
17.49167	133
17.50000	133
17.50833	134
17.51667	136
17.52500	137
17.53333	138
17.54167	139
17.55000	140
17.55833	141
17.56667	143
17.57500	145
17.58333	146
17.59167	149
17.60000	151
17.60833	154
17.61667	157
17.62500	161
17.63333	164
17.64167	167
17.65000	171
17.65833	175
17.66667	179
17.67500	184
17.68333	189
17.69167	195
17.70000	202
17.70833	209
17.71667	216
17.72500	225
17.73333	234
17.74167	244
17.75000	255
17.75833	267
17.76667	280
17.77500	295
17.78333	311
17.79167	329
17.80000	348
17.80833	370
17.81667	394
17.82500	420
17.83333	448
17.84167	480
17.85000	515
17.85833	553
17.86667	595
17.87500	642
17.88333	693
17.89167	749
17.90000	811
17.90833	877
17.91667	949
17.92500	1027
17.93333	1111
17.94167	1202
17.95000	1298
17.95833	1400
17.96667	1509
17.97500	1622
17.98333	1741
17.99167	1865
18.00000	1993
18.00833	2124
18.01667	2257
18.02500	2391
18.03333	2526
18.04167	2660
18.05000	2791
18.05833	2919
18.06667	3042
18.07500	3158
18.08333	3267
18.09167	3367
18.10000	3458
18.10833	3537
18.11667	3604
18.12500	3659
18.13333	3700
18.14167	3728
18.15000	3742
18.15833	3743
18.16667	3729
18.17500	3703
18.18333	3663
18.19167	3610
18.20000	3546
18.20833	3472
18.21667	3387
18.22500	3294
18.23333	3194
18.24167	3087
18.25000	2976
18.25833	2860
18.26667	2742
18.27500	2621
18.28333	2500
18.29167	2379
18.30000	2260
18.30833	2142
18.31667	2027
18.32500	1915
18.33333	1807
18.34167	1703
18.35000	1603
18.35833	1508
18.36667	1418
18.37500	1333
18.38333	1252
18.39167	1177
18.40000	1106
18.40833	1040
18.41667	979
18.42500	922
18.43333	869
18.44167	819
18.45000	774
18.45833	732
18.46667	694
18.47500	658
18.48333	626
18.49167	595
18.50000	567
18.50833	542
18.51667	518
18.52500	497
18.53333	478
18.54167	460
18.55000	444
18.55833	430
18.56667	417
18.57500	405
18.58333	394
18.59167	384
18.60000	376
18.60833	369
18.61667	363
18.62500	358
18.63333	354
18.64167	351
18.65000	348
18.65833	347
18.66667	347
18.67500	348
18.68333	348
18.69167	350
18.70000	353
18.70833	356
18.71667	360
18.72500	365
18.73333	371
18.74167	377
18.75000	384
18.75833	392
18.76667	400
18.77500	409
18.78333	418
18.79167	427
18.80000	437
18.80833	448
18.81667	459
18.82500	470
18.83333	480
18.84167	490
18.85000	500
18.85833	510
18.86667	520
18.87500	529
18.88333	537
18.89167	544
18.90000	551
18.90833	556
18.91667	561
18.92500	565
18.93333	567
18.94167	569
18.95000	569
18.95833	569
18.96667	567
18.97500	564
18.98333	560
18.99167	556
19.00000	550
19.00833	544
19.01667	537
19.02500	529
19.03333	521
19.04167	512
19.05000	503
19.05833	494
19.06667	484
19.07500	475
19.08333	465
19.09167	454
19.10000	445
19.10833	435
19.11667	426
19.12500	417
19.13333	408
19.14167	399
19.15000	390
19.15833	382
19.16667	375
19.17500	368
19.18333	361
19.19167	355
19.20000	349
19.20833	343
19.21667	338
19.22500	333
19.23333	328
19.24167	324
19.25000	320
19.25833	317
19.26667	314
19.27500	311
19.28333	309
19.29167	307
19.30000	305
19.30833	303
19.31667	301
19.32500	300
19.33333	299
19.34167	298
19.35000	297
19.35833	297
19.36667	297
19.37500	297
19.38333	297
19.39167	298
19.40000	298
19.40833	298
19.41667	298
19.42500	299
19.43333	299
19.44167	300
19.45000	300
19.45833	301
19.46667	302
19.47500	302
19.48333	303
19.49167	304
19.50000	304
19.50833	305
19.51667	306
19.52500	306
19.53333	307
19.54167	307
19.55000	307
19.55833	308
19.56667	308
19.57500	309
19.58333	310
19.59167	310
19.60000	311
19.60833	311
19.61667	312
19.62500	313
19.63333	314
19.64167	314
19.65000	314
19.65833	314
19.66667	315
19.67500	315
19.68333	315
19.69167	316
19.70000	316
19.70833	316
19.71667	316
19.72500	317
19.73333	317
19.74167	317
19.75000	318
19.75833	318
19.76667	318
19.77500	319
19.78333	320
19.79167	320
19.80000	320
19.80833	321
19.81667	321
19.82500	321
19.83333	321
19.84167	322
19.85000	322
19.85833	323
19.86667	323
19.87500	323
19.88333	324
19.89167	324
19.90000	324
19.90833	325
19.91667	325
19.92500	326
19.93333	326
19.94167	327
19.95000	327
19.95833	328
19.96667	329
19.97500	329
19.98333	329
19.99167	330
20.00000	330
20.00833	330
20.01667	330
20.02500	331
20.03333	332
20.04167	333
20.05000	334
20.05833	335
20.06667	336
20.07500	337
20.08333	338
20.09167	338
20.10000	339
20.10833	340
20.11667	341
20.12500	341
20.13333	342
20.14167	343
20.15000	344
20.15833	345
20.16667	346
20.17500	348
20.18333	348
20.19167	349
20.20000	350
20.20833	351
20.21667	352
20.22500	354
20.23333	355
20.24167	356
20.25000	357
20.25833	359
20.26667	360
20.27500	362
20.28333	364
20.29167	366
20.30000	367
20.30833	369
20.31667	371
20.32500	373
20.33333	375
20.34167	377
20.35000	379
20.35833	381
20.36667	384
20.37500	386
20.38333	388
20.39167	391
20.40000	394
20.40833	397
20.41667	400
20.42500	403
20.43333	407
20.44167	410
20.45000	414
20.45833	418
20.46667	422
20.47500	427
20.48333	432
20.49167	437
20.50000	443
20.50833	449
20.51667	456
20.52500	463
20.53333	470
20.54167	478
20.55000	486
20.55833	494
20.56667	504
20.57500	514
20.58333	525
20.59167	536
20.60000	549
20.60833	562
20.61667	577
20.62500	592
20.63333	608
20.64167	626
20.65000	645
20.65833	665
20.66667	687
20.67500	710
20.68333	733
20.69167	759
20.70000	786
20.70833	814
20.71667	843
20.72500	873
20.73333	905
20.74167	938
20.75000	973
20.75833	1008
20.76667	1044
20.77500	1081
20.78333	1118
20.79167	1157
20.80000	1195
20.80833	1234
20.81667	1274
20.82500	1313
20.83333	1352
20.84167	1390
20.85000	1429
20.85833	1466
20.86667	1503
20.87500	1539
20.88333	1575
20.89167	1609
20.90000	1643
20.90833	1676
20.91667	1708
20.92500	1739
20.93333	1769
20.94167	1798
20.95000	1827
20.95833	1855
20.96667	1882
20.97500	1908
20.98333	1934
20.99167	1960
21.00000	1986
21.00833	2013
21.01667	2040
21.02500	2068
21.03333	2097
21.04167	2128
21.05000	2161
21.05833	2195
21.06667	2233
21.07500	2273
21.08333	2316
21.09167	2363
21.10000	2414
21.10833	2470
21.11667	2531
21.12500	2597
21.13333	2670
21.14167	2749
21.15000	2836
21.15833	2931
21.16667	3035
21.17500	3148
21.18333	3271
21.19167	3405
21.20000	3551
21.20833	3708
21.21667	3878
21.22500	4062
21.23333	4259
21.24167	4470
21.25000	4695
21.25833	4935
21.26667	5191
21.27500	5461
21.28333	5745
21.29167	6043
21.30000	6355
21.30833	6681
21.31667	7019
21.32500	7368
21.33333	7728
21.34167	8096
21.35000	8470
21.35833	8850
21.36667	9233
21.37500	9617
21.38333	10001
21.39167	10381
21.40000	10756
21.40833	11123
21.41667	11479
21.42500	11823
21.43333	12151
21.44167	12462
21.45000	12753
21.45833	13022
21.46667	13267
21.47500	13487
21.48333	13679
21.49167	13843
21.50000	13977
21.50833	14081
21.51667	14153
21.52500	14195
21.53333	14204
21.54167	14183
21.55000	14130
21.55833	14047
21.56667	13934
21.57500	13793
21.58333	13624
21.59167	13430
21.60000	13212
21.60833	12972
21.61667	12710
21.62500	12429
21.63333	12132
21.64167	11821
21.65000	11496
21.65833	11161
21.66667	10818
21.67500	10468
21.68333	10114
21.69167	9757
21.70000	9398
21.70833	9040
21.71667	8684
21.72500	8331
21.73333	7983
21.74167	7641
21.75000	7305
21.75833	6977
21.76667	6658
21.77500	6347
21.78333	6047
21.79167	5757
21.80000	5477
21.80833	5208
21.81667	4950
21.82500	4703
21.83333	4466
21.84167	4240
21.85000	4026
21.85833	3821
21.86667	3627
21.87500	3443
21.88333	3269
21.89167	3104
21.90000	2948
21.90833	2801
21.91667	2662
21.92500	2531
21.93333	2407
21.94167	2291
21.95000	2181
21.95833	2078
21.96667	1982
21.97500	1891
21.98333	1806
21.99167	1726
22.00000	1651
22.00833	1581
22.01667	1515
22.02500	1453
22.03333	1396
22.04167	1342
22.05000	1292
22.05833	1245
22.06667	1202
22.07500	1161
22.08333	1124
22.09167	1089
22.10000	1056
22.10833	1026
22.11667	999
22.12500	973
22.13333	949
22.14167	927
22.15000	908
22.15833	890
22.16667	874
22.17500	859
22.18333	845
22.19167	833
22.20000	822
22.20833	812
22.21667	803
22.22500	795
22.23333	788
22.24167	782
22.25000	777
22.25833	772
22.26667	767
22.27500	763
22.28333	760
22.29167	757
22.30000	755
22.30833	752
22.31667	750
22.32500	748
22.33333	746
22.34167	744
22.35000	742
22.35833	739
22.36667	737
22.37500	735
22.38333	732
22.39167	730
22.40000	727
22.40833	724
22.41667	721
22.42500	717
22.43333	714
22.44167	710
22.45000	705
22.45833	701
22.46667	696
22.47500	691
22.48333	686
22.49167	680
22.50000	675
22.50833	669
22.51667	662
22.52500	656
22.53333	649
22.54167	642
22.55000	635
22.55833	628
22.56667	620
22.57500	612
22.58333	604
22.59167	596
22.60000	588
22.60833	580
22.61667	572
22.62500	564
22.63333	556
22.64167	548
22.65000	541
22.65833	533
22.66667	526
22.67500	519
22.68333	511
22.69167	504
22.70000	498
22.70833	491
22.71667	485
22.72500	479
22.73333	473
22.74167	468
22.75000	463
22.75833	458
22.76667	454
22.77500	450
22.78333	446
22.79167	442
22.80000	438
22.80833	435
22.81667	432
22.82500	430
22.83333	428
22.84167	426
22.85000	425
22.85833	424
22.86667	424
22.87500	423
22.88333	424
22.89167	424
22.90000	425
22.90833	426
22.91667	427
22.92500	429
22.93333	430
22.94167	432
22.95000	434
22.95833	436
22.96667	438
22.97500	441
22.98333	443
22.99167	446
23.00000	448
23.00833	451
23.01667	454
23.02500	457
23.03333	460
23.04167	463
23.05000	466
23.05833	468
23.06667	471
23.07500	474
23.08333	476
23.09167	479
23.10000	481
23.10833	484
23.11667	486
23.12500	488
23.13333	489
23.14167	491
23.15000	492
23.15833	494
23.16667	495
23.17500	496
23.18333	497
23.19167	497
23.20000	498
23.20833	499
23.21667	499
23.22500	500
23.23333	501
23.24167	501
23.25000	501
23.25833	501
23.26667	501
23.27500	501
23.28333	500
23.29167	500
23.30000	499
23.30833	499
23.31667	498
23.32500	498
23.33333	497
23.34167	497
23.35000	496
23.35833	495
23.36667	494
23.37500	493
23.38333	491
23.39167	490
23.40000	490
23.40833	489
23.41667	488
23.42500	488
23.43333	487
23.44167	487
23.45000	487
23.45833	486
23.46667	485
23.47500	484
23.48333	484
23.49167	483
23.50000	482
23.50833	481
23.51667	480
23.52500	480
23.53333	479
23.54167	478
23.55000	478
23.55833	477
23.56667	477
23.57500	476
23.58333	476
23.59167	475
23.60000	475
23.60833	474
23.61667	474
23.62500	474
23.63333	473
23.64167	473
23.65000	472
23.65833	472
23.66667	471
23.67500	470
23.68333	470
23.69167	470
23.70000	470
23.70833	470
23.71667	469
23.72500	468
23.73333	468
23.74167	467
23.75000	466
23.75833	466
23.76667	467
23.77500	467
23.78333	467
23.79167	467
23.80000	468
23.80833	468
23.81667	468
23.82500	467
23.83333	467
23.84167	467
23.85000	467
23.85833	466
23.86667	466
23.87500	466
23.88333	465
23.89167	465
23.90000	464
23.90833	464
23.91667	464
23.92500	464
23.93333	464
23.94167	464
23.95000	465
23.95833	465
23.96667	465
23.97500	464
23.98333	464
23.99167	464
24.00000	464
24.00833	464
24.01667	464
24.02500	463
24.03333	463
24.04167	462
24.05000	462
24.05833	462
24.06667	461
24.07500	460
24.08333	459
24.09167	459
24.10000	459
24.10833	458
24.11667	458
24.12500	457
24.13333	457
24.14167	456
24.15000	455
24.15833	454
24.16667	452
24.17500	451
24.18333	449
24.19167	448
24.20000	447
24.20833	445
24.21667	444
24.22500	442
24.23333	440
24.24167	439
24.25000	437
24.25833	435
24.26667	433
24.27500	431
24.28333	429
24.29167	426
24.30000	424
24.30833	422
24.31667	419
24.32500	417
24.33333	415
24.34167	412
24.35000	410
24.35833	408
24.36667	406
24.37500	403
24.38333	401
24.39167	399
24.40000	397
24.40833	395
24.41667	393
24.42500	391
24.43333	390
24.44167	388
24.45000	387
24.45833	385
24.46667	384
24.47500	382
24.48333	381
24.49167	380
24.50000	379
24.50833	378
24.51667	377
24.52500	376
24.53333	376
24.54167	375
24.55000	374
24.55833	374
24.56667	373
24.57500	373
24.58333	373
24.59167	373
24.60000	373
24.60833	373
24.61667	373
24.62500	374
24.63333	374
24.64167	374
24.65000	374
24.65833	373
24.66667	373
24.67500	373
24.68333	373
24.69167	373
24.70000	373
24.70833	372
24.71667	372
24.72500	373
24.73333	373
24.74167	373
24.75000	373
24.75833	373
24.76667	373
24.77500	373
24.78333	373
24.79167	373
24.80000	373
24.80833	373
24.81667	374
24.82500	374
24.83333	374
24.84167	374
24.85000	375
24.85833	375
24.86667	375
24.87500	375
24.88333	375
24.89167	375
24.90000	375
24.90833	376
24.91667	376
24.92500	376
24.93333	376
24.94167	376
24.95000	376
24.95833	376
24.96667	376
24.97500	376
24.98333	376
24.99167	376
25.00000	376
25.00833	376
25.01667	376
25.02500	376
25.03333	376
25.04167	375
25.05000	375
25.05833	374
25.06667	374
25.07500	373
25.08333	373
25.09167	373
25.10000	373
25.10833	372
25.11667	371
25.12500	371
25.13333	370
25.14167	369
25.15000	368
25.15833	368
25.16667	367
25.17500	366
25.18333	366
25.19167	365
25.20000	364
25.20833	363
25.21667	363
25.22500	363
25.23333	363
25.24167	362
25.25000	362
25.25833	362
25.26667	362
25.27500	362
25.28333	361
25.29167	361
25.30000	361
25.30833	361
25.31667	360
25.32500	360
25.33333	360
25.34167	360
25.35000	360
25.35833	360
25.36667	360
25.37500	360
25.38333	360
25.39167	360
25.40000	360
25.40833	360
25.41667	360
25.42500	360
25.43333	360
25.44167	360
25.45000	360
25.45833	361
25.46667	361
25.47500	362
25.48333	362
25.49167	362
25.50000	362
25.50833	362
25.51667	362
25.52500	363
25.53333	363
25.54167	363
25.55000	364
25.55833	364
25.56667	364
25.57500	364
25.58333	365
25.59167	365
25.60000	365
25.60833	366
25.61667	366
25.62500	367
25.63333	367
25.64167	368
25.65000	368
25.65833	368
25.66667	368
25.67500	368
25.68333	369
25.69167	369
25.70000	369
25.70833	370
25.71667	371
25.72500	371
25.73333	371
25.74167	372
25.75000	372
25.75833	372
25.76667	372
25.77500	372
25.78333	373
25.79167	373
25.80000	374
25.80833	375
25.81667	376
25.82500	377
25.83333	378
25.84167	379
25.85000	380
25.85833	381
25.86667	382
25.87500	383
25.88333	385
25.89167	386
25.90000	388
25.90833	390
25.91667	391
25.92500	393
25.93333	395
25.94167	397
25.95000	400
25.95833	402
25.96667	405
25.97500	407
25.98333	410
25.99167	413
26.00000	416
26.00833	420
26.01667	423
26.02500	427
26.03333	431
26.04167	436
26.05000	440
26.05833	446
26.06667	452
26.07500	458
26.08333	464
26.09167	471
26.10000	478
26.10833	486
26.11667	495
26.12500	504
26.13333	513
26.14167	523
26.15000	534
26.15833	545
26.16667	558
26.17500	571
26.18333	585
26.19167	600
26.20000	615
26.20833	632
26.21667	650
26.22500	668
26.23333	687
26.24167	707
26.25000	728
26.25833	750
26.26667	772
26.27500	795
26.28333	820
26.29167	844
26.30000	870
26.30833	896
26.31667	923
26.32500	951
26.33333	979
26.34167	1007
26.35000	1035
26.35833	1064
26.36667	1093
26.37500	1121
26.38333	1150
26.39167	1179
26.40000	1207
26.40833	1234
26.41667	1261
26.42500	1286
26.43333	1311
26.44167	1335
26.45000	1358
26.45833	1380
26.46667	1400
26.47500	1419
26.48333	1436
26.49167	1451
26.50000	1465
26.50833	1477
26.51667	1486
26.52500	1494
26.53333	1499
26.54167	1503
26.55000	1504
26.55833	1502
26.56667	1499
26.57500	1493
26.58333	1485
26.59167	1476
26.60000	1464
26.60833	1450
26.61667	1435
26.62500	1418
26.63333	1398
26.64167	1377
26.65000	1355
26.65833	1331
26.66667	1306
26.67500	1280
26.68333	1253
26.69167	1225
26.70000	1197
26.70833	1168
26.71667	1139
26.72500	1109
26.73333	1080
26.74167	1050
26.75000	1021
26.75833	992
26.76667	963
26.77500	934
26.78333	905
26.79167	877
26.80000	850
26.80833	824
26.81667	798
26.82500	773
26.83333	749
26.84167	725
26.85000	702
26.85833	681
26.86667	660
26.87500	640
26.88333	620
26.89167	602
26.90000	584
26.90833	567
26.91667	550
26.92500	535
26.93333	520
26.94167	506
26.95000	492
26.95833	479
26.96667	467
26.97500	455
26.98333	444
26.99167	433
27.00000	423
27.00833	413
27.01667	404
27.02500	395
27.03333	387
27.04167	379
27.05000	371
27.05833	364
27.06667	357
27.07500	351
27.08333	345
27.09167	339
27.10000	334
27.10833	330
27.11667	325
27.12500	320
27.13333	315
27.14167	311
27.15000	307
27.15833	303
27.16667	300
27.17500	297
27.18333	293
27.19167	290
27.20000	288
27.20833	285
27.21667	282
27.22500	279
27.23333	276
27.24167	273
27.25000	270
27.25833	267
27.26667	264
27.27500	261
27.28333	259
27.29167	257
27.30000	255
27.30833	253
27.31667	252
27.32500	249
27.33333	247
27.34167	244
27.35000	242
27.35833	240
27.36667	238
27.37500	236
27.38333	234
27.39167	233
27.40000	232
27.40833	231
27.41667	230
27.42500	228
27.43333	227
27.44167	226
27.45000	225
27.45833	224
27.46667	223
27.47500	221
27.48333	220
27.49167	220
27.50000	219
27.50833	218
27.51667	217
27.52500	216
27.53333	216
27.54167	215
27.55000	214
27.55833	213
27.56667	213
27.57500	212
27.58333	211
27.59167	211
27.60000	210
27.60833	209
27.61667	208
27.62500	207
27.63333	206
27.64167	205
27.65000	204
27.65833	202
27.66667	201
27.67500	201
27.68333	199
27.69167	199
27.70000	198
27.70833	197
27.71667	196
27.72500	196
27.73333	195
27.74167	194
27.75000	194
27.75833	193
27.76667	193
27.77500	192
27.78333	192
27.79167	191
27.80000	191
27.80833	190
27.81667	190
27.82500	189
27.83333	188
27.84167	188
27.85000	187
27.85833	186
27.86667	186
27.87500	185
27.88333	185
27.89167	184
27.90000	184
27.90833	184
27.91667	183
27.92500	183
27.93333	182
27.94167	181
27.95000	180
27.95833	180
27.96667	179
27.97500	179
27.98333	179
27.99167	178
28.00000	178

