R.Time (min)	Intensity
0.00000	-20
0.00833	-20
0.01667	-11
0.02500	0
0.03333	-0
0.04167	-1
0.05000	-2
0.05833	-2
0.06667	-3
0.07500	-3
0.08333	-3
0.09167	-4
0.10000	-4
0.10833	-4
0.11667	-4
0.12500	-3
0.13333	-3
0.14167	-3
0.15000	-2
0.15833	-2
0.16667	-2
0.17500	-3
0.18333	-3
0.19167	-3
0.20000	-3
0.20833	-3
0.21667	-3
0.22500	-3
0.23333	-3
0.24167	-4
0.25000	-4
0.25833	-4
0.26667	-4
0.27500	-4
0.28333	-4
0.29167	-4
0.30000	-4
0.30833	-4
0.31667	-4
0.32500	-4
0.33333	-4
0.34167	-5
0.35000	-5
0.35833	-5
0.36667	-6
0.37500	-6
0.38333	-6
0.39167	-6
0.40000	-6
0.40833	-6
0.41667	-6
0.42500	-5
0.43333	-5
0.44167	-6
0.45000	-6
0.45833	-6
0.46667	-7
0.47500	-7
0.48333	-8
0.49167	-8
0.50000	-9
0.50833	-9
0.51667	-10
0.52500	-10
0.53333	-11
0.54167	-11
0.55000	-11
0.55833	-11
0.56667	-11
0.57500	-11
0.58333	-12
0.59167	-12
0.60000	-12
0.60833	-12
0.61667	-13
0.62500	-13
0.63333	-13
0.64167	-13
0.65000	-13
0.65833	-13
0.66667	-13
0.67500	-13
0.68333	-13
0.69167	-13
0.70000	-14
0.70833	-14
0.71667	-14
0.72500	-15
0.73333	-15
0.74167	-15
0.75000	-16
0.75833	-16
0.76667	-16
0.77500	-17
0.78333	-17
0.79167	-17
0.80000	-17
0.80833	-17
0.81667	-16
0.82500	-17
0.83333	-17
0.84167	-17
0.85000	-18
0.85833	-18
0.86667	-18
0.87500	-18
0.88333	-18
0.89167	-17
0.90000	-17
0.90833	-18
0.91667	-18
0.92500	-19
0.93333	-19
0.94167	-19
0.95000	-19
0.95833	-19
0.96667	-19
0.97500	-20
0.98333	-20
0.99167	-20
1.00000	-20
1.00833	-20
1.01667	-20
1.02500	-20
1.03333	-20
1.04167	-20
1.05000	-20
1.05833	-20
1.06667	-20
1.07500	-20
1.08333	-20
1.09167	-20
1.10000	-20
1.10833	-20
1.11667	-21
1.12500	-21
1.13333	-21
1.14167	-20
1.15000	-20
1.15833	-20
1.16667	-20
1.17500	-21
1.18333	-22
1.19167	-22
1.20000	-23
1.20833	-23
1.21667	-23
1.22500	-23
1.23333	-24
1.24167	-24
1.25000	-24
1.25833	-24
1.26667	-24
1.27500	-24
1.28333	-24
1.29167	-25
1.30000	-25
1.30833	-25
1.31667	-25
1.32500	-26
1.33333	-26
1.34167	-26
1.35000	-26
1.35833	-26
1.36667	-26
1.37500	-26
1.38333	-26
1.39167	-26
1.40000	-26
1.40833	-26
1.41667	-26
1.42500	-27
1.43333	-27
1.44167	-27
1.45000	-27
1.45833	-27
1.46667	-27
1.47500	-27
1.48333	-26
1.49167	-26
1.50000	-26
1.50833	-26
1.51667	-25
1.52500	-25
1.53333	-25
1.54167	-25
1.55000	-25
1.55833	-25
1.56667	-25
1.57500	-25
1.58333	-24
1.59167	-24
1.60000	-23
1.60833	-23
1.61667	-23
1.62500	-23
1.63333	-23
1.64167	-22
1.65000	-22
1.65833	-22
1.66667	-23
1.67500	-23
1.68333	-23
1.69167	-23
1.70000	-23
1.70833	-23
1.71667	-23
1.72500	-23
1.73333	-23
1.74167	-23
1.75000	-23
1.75833	-23
1.76667	-23
1.77500	-23
1.78333	-23
1.79167	-23
1.80000	-24
1.80833	-24
1.81667	-24
1.82500	-24
1.83333	-24
1.84167	-23
1.85000	-23
1.85833	-23
1.86667	-23
1.87500	-24
1.88333	-24
1.89167	-24
1.90000	-24
1.90833	-23
1.91667	-23
1.92500	-23
1.93333	-23
1.94167	-23
1.95000	-24
1.95833	-24
1.96667	-24
1.97500	-24
1.98333	-23
1.99167	-23
2.00000	-23
2.00833	-23
2.01667	-23
2.02500	-23
2.03333	-23
2.04167	-23
2.05000	-23
2.05833	-23
2.06667	-22
2.07500	-22
2.08333	-22
2.09167	-21
2.10000	-21
2.10833	-21
2.11667	-20
2.12500	-20
2.13333	-20
2.14167	-19
2.15000	-18
2.15833	-17
2.16667	-16
2.17500	-15
2.18333	-14
2.19167	-13
2.20000	-12
2.20833	-11
2.21667	-10
2.22500	-9
2.23333	-8
2.24167	-7
2.25000	-6
2.25833	-5
2.26667	-3
2.27500	-1
2.28333	1
2.29167	3
2.30000	5
2.30833	7
2.31667	10
2.32500	13
2.33333	16
2.34167	20
2.35000	22
2.35833	26
2.36667	29
2.37500	32
2.38333	36
2.39167	40
2.40000	45
2.40833	50
2.41667	55
2.42500	60
2.43333	66
2.44167	72
2.45000	78
2.45833	85
2.46667	92
2.47500	100
2.48333	108
2.49167	117
2.50000	127
2.50833	137
2.51667	147
2.52500	159
2.53333	170
2.54167	182
2.55000	194
2.55833	207
2.56667	221
2.57500	235
2.58333	250
2.59167	266
2.60000	283
2.60833	301
2.61667	320
2.62500	340
2.63333	361
2.64167	384
2.65000	407
2.65833	431
2.66667	457
2.67500	485
2.68333	514
2.69167	544
2.70000	576
2.70833	610
2.71667	645
2.72500	682
2.73333	721
2.74167	762
2.75000	805
2.75833	850
2.76667	897
2.77500	947
2.78333	1000
2.79167	1055
2.80000	1114
2.80833	1176
2.81667	1240
2.82500	1308
2.83333	1380
2.84167	1455
2.85000	1534
2.85833	1616
2.86667	1703
2.87500	1794
2.88333	1889
2.89167	1989
2.90000	2094
2.90833	2203
2.91667	2318
2.92500	2437
2.93333	2561
2.94167	2692
2.95000	2827
2.95833	2968
2.96667	3114
2.97500	3265
2.98333	3421
2.99167	3583
3.00000	3750
3.00833	3922
3.01667	4099
3.02500	4281
3.03333	4467
3.04167	4658
3.05000	4852
3.05833	5051
3.06667	5253
3.07500	5457
3.08333	5664
3.09167	5873
3.10000	6084
3.10833	6294
3.11667	6506
3.12500	6716
3.13333	6926
3.14167	7135
3.15000	7340
3.15833	7543
3.16667	7742
3.17500	7936
3.18333	8125
3.19167	8308
3.20000	8485
3.20833	8653
3.21667	8814
3.22500	8966
3.23333	9108
3.24167	9241
3.25000	9362
3.25833	9473
3.26667	9572
3.27500	9659
3.28333	9735
3.29167	9797
3.30000	9847
3.30833	9883
3.31667	9906
3.32500	9916
3.33333	9912
3.34167	9896
3.35000	9866
3.35833	9824
3.36667	9768
3.37500	9700
3.38333	9620
3.39167	9528
3.40000	9424
3.40833	9309
3.41667	9185
3.42500	9050
3.43333	8906
3.44167	8754
3.45000	8594
3.45833	8426
3.46667	8251
3.47500	8069
3.48333	7883
3.49167	7691
3.50000	7495
3.50833	7296
3.51667	7094
3.52500	6889
3.53333	6683
3.54167	6476
3.55000	6268
3.55833	6061
3.56667	5854
3.57500	5648
3.58333	5444
3.59167	5243
3.60000	5043
3.60833	4846
3.61667	4653
3.62500	4463
3.63333	4277
3.64167	4095
3.65000	3918
3.65833	3745
3.66667	3577
3.67500	3413
3.68333	3255
3.69167	3102
3.70000	2953
3.70833	2810
3.71667	2672
3.72500	2540
3.73333	2412
3.74167	2290
3.75000	2173
3.75833	2061
3.76667	1954
3.77500	1851
3.78333	1753
3.79167	1660
3.80000	1572
3.80833	1488
3.81667	1408
3.82500	1333
3.83333	1262
3.84167	1194
3.85000	1129
3.85833	1068
3.86667	1011
3.87500	957
3.88333	906
3.89167	858
3.90000	812
3.90833	769
3.91667	729
3.92500	692
3.93333	657
3.94167	623
3.95000	592
3.95833	562
3.96667	535
3.97500	509
3.98333	484
3.99167	461
4.00000	440
4.00833	420
4.01667	401
4.02500	383
4.03333	366
4.04167	350
4.05000	335
4.05833	321
4.06667	308
4.07500	295
4.08333	283
4.09167	272
4.10000	261
4.10833	251
4.11667	241
4.12500	231
4.13333	221
4.14167	213
4.15000	204
4.15833	196
4.16667	189
4.17500	182
4.18333	174
4.19167	167
4.20000	160
4.20833	153
4.21667	147
4.22500	141
4.23333	134
4.24167	129
4.25000	123
4.25833	118
4.26667	112
4.27500	107
4.28333	102
4.29167	97
4.30000	93
4.30833	88
4.31667	83
4.32500	78
4.33333	74
4.34167	70
4.35000	66
4.35833	62
4.36667	59
4.37500	55
4.38333	51
4.39167	48
4.40000	45
4.40833	42
4.41667	39
4.42500	36
4.43333	33
4.44167	31
4.45000	29
4.45833	26
4.46667	24
4.47500	22
4.48333	20
4.49167	19
4.50000	18
4.50833	16
4.51667	15
4.52500	14
4.53333	12
4.54167	11
4.55000	10
4.55833	9
4.56667	8
4.57500	7
4.58333	7
4.59167	6
4.60000	5
4.60833	5
4.61667	4
4.62500	4
4.63333	3
4.64167	3
4.65000	3
4.65833	3
4.66667	4
4.67500	4
4.68333	4
4.69167	4
4.70000	5
4.70833	5
4.71667	6
4.72500	6
4.73333	6
4.74167	7
4.75000	7
4.75833	7
4.76667	7
4.77500	8
4.78333	8
4.79167	8
4.80000	9
4.80833	10
4.81667	10
4.82500	11
4.83333	11
4.84167	12
4.85000	12
4.85833	12
4.86667	13
4.87500	13
4.88333	14
4.89167	14
4.90000	15
4.90833	15
4.91667	15
4.92500	16
4.93333	16
4.94167	17
4.95000	18
4.95833	18
4.96667	18
4.97500	18
4.98333	18
4.99167	18
5.00000	18
5.00833	19
5.01667	19
5.02500	19
5.03333	19
5.04167	19
5.05000	19
5.05833	19
5.06667	19
5.07500	19
5.08333	19
5.09167	18
5.10000	17
5.10833	17
5.11667	16
5.12500	16
5.13333	15
5.14167	15
5.15000	15
5.15833	15
5.16667	15
5.17500	14
5.18333	14
5.19167	13
5.20000	12
5.20833	12
5.21667	11
5.22500	10
5.23333	9
5.24167	9
5.25000	8
5.25833	8
5.26667	7
5.27500	6
5.28333	5
5.29167	5
5.30000	4
5.30833	3
5.31667	2
5.32500	2
5.33333	1
5.34167	0
5.35000	-1
5.35833	-1
5.36667	-2
5.37500	-3
5.38333	-4
5.39167	-5
5.40000	-6
5.40833	-6
5.41667	-7
5.42500	-8
5.43333	-9
5.44167	-10
5.45000	-10
5.45833	-11
5.46667	-12
5.47500	-13
5.48333	-14
5.49167	-14
5.50000	-15
5.50833	-16
5.51667	-16
5.52500	-17
5.53333	-18
5.54167	-19
5.55000	-19
5.55833	-19
5.56667	-20
5.57500	-20
5.58333	-21
5.59167	-22
5.60000	-23
5.60833	-24
5.61667	-24
5.62500	-24
5.63333	-25
5.64167	-26
5.65000	-26
5.65833	-27
5.66667	-27
5.67500	-28
5.68333	-29
5.69167	-29
5.70000	-30
5.70833	-30
5.71667	-31
5.72500	-31
5.73333	-32
5.74167	-32
5.75000	-33
5.75833	-33
5.76667	-34
5.77500	-35
5.78333	-35
5.79167	-36
5.80000	-36
5.80833	-37
5.81667	-37
5.82500	-38
5.83333	-38
5.84167	-39
5.85000	-39
5.85833	-39
5.86667	-39
5.87500	-39
5.88333	-40
5.89167	-40
5.90000	-40
5.90833	-41
5.91667	-41
5.92500	-42
5.93333	-42
5.94167	-42
5.95000	-42
5.95833	-43
5.96667	-44
5.97500	-44
5.98333	-44
5.99167	-45
6.00000	-45
6.00833	-45
6.01667	-46
6.02500	-46
6.03333	-46
6.04167	-46
6.05000	-46
6.05833	-45
6.06667	-45
6.07500	-45
6.08333	-45
6.09167	-45
6.10000	-45
6.10833	-45
6.11667	-45
6.12500	-45
6.13333	-45
6.14167	-45
6.15000	-45
6.15833	-45
6.16667	-46
6.17500	-46
6.18333	-45
6.19167	-45
6.20000	-45
6.20833	-44
6.21667	-44
6.22500	-44
6.23333	-44
6.24167	-44
6.25000	-44
6.25833	-44
6.26667	-44
6.27500	-44
6.28333	-44
6.29167	-43
6.30000	-43
6.30833	-43
6.31667	-43
6.32500	-43
6.33333	-42
6.34167	-43
6.35000	-43
6.35833	-43
6.36667	-43
6.37500	-43
6.38333	-43
6.39167	-42
6.40000	-42
6.40833	-42
6.41667	-42
6.42500	-41
6.43333	-41
6.44167	-41
6.45000	-41
6.45833	-41
6.46667	-41
6.47500	-41
6.48333	-41
6.49167	-41
6.50000	-42
6.50833	-41
6.51667	-41
6.52500	-41
6.53333	-42
6.54167	-42
6.55000	-42
6.55833	-42
6.56667	-42
6.57500	-42
6.58333	-42
6.59167	-42
6.60000	-42
6.60833	-42
6.61667	-42
6.62500	-42
6.63333	-42
6.64167	-42
6.65000	-42
6.65833	-42
6.66667	-42
6.67500	-42
6.68333	-42
6.69167	-42
6.70000	-42
6.70833	-43
6.71667	-43
6.72500	-43
6.73333	-43
6.74167	-43
6.75000	-43
6.75833	-44
6.76667	-44
6.77500	-44
6.78333	-44
6.79167	-44
6.80000	-44
6.80833	-44
6.81667	-44
6.82500	-45
6.83333	-45
6.84167	-45
6.85000	-44
6.85833	-45
6.86667	-45
6.87500	-45
6.88333	-45
6.89167	-44
6.90000	-44
6.90833	-44
6.91667	-44
6.92500	-45
6.93333	-44
6.94167	-44
6.95000	-43
6.95833	-44
6.96667	-44
6.97500	-44
6.98333	-44
6.99167	-44
7.00000	-43
7.00833	-43
7.01667	-43
7.02500	-42
7.03333	-42
7.04167	-42
7.05000	-41
7.05833	-40
7.06667	-39
7.07500	-37
7.08333	-35
7.09167	-33
7.10000	-29
7.10833	-25
7.11667	-19
7.12500	-13
7.13333	-5
7.14167	5
7.15000	15
7.15833	29
7.16667	44
7.17500	61
7.18333	80
7.19167	102
7.20000	127
7.20833	153
7.21667	182
7.22500	213
7.23333	245
7.24167	278
7.25000	311
7.25833	343
7.26667	373
7.27500	400
7.28333	422
7.29167	437
7.30000	442
7.30833	438
7.31667	423
7.32500	398
7.33333	367
7.34167	336
7.35000	314
7.35833	314
7.36667	350
7.37500	441
7.38333	607
7.39167	867
7.40000	1242
7.40833	1749
7.41667	2405
7.42500	3220
7.43333	4199
7.44167	5341
7.45000	6635
7.45833	8065
7.46667	9603
7.47500	11211
7.48333	12842
7.49167	14439
7.50000	15940
7.50833	17280
7.51667	18398
7.52500	19238
7.53333	19762
7.54167	19947
7.55000	19793
7.55833	19318
7.56667	18559
7.57500	17567
7.58333	16400
7.59167	15119
7.60000	13783
7.60833	12444
7.61667	11145
7.62500	9918
7.63333	8785
7.64167	7760
7.65000	6847
7.65833	6046
7.66667	5350
7.67500	4750
7.68333	4237
7.69167	3799
7.70000	3426
7.70833	3107
7.71667	2835
7.72500	2601
7.73333	2399
7.74167	2223
7.75000	2070
7.75833	1936
7.76667	1818
7.77500	1713
7.78333	1620
7.79167	1536
7.80000	1459
7.80833	1390
7.81667	1325
7.82500	1265
7.83333	1208
7.84167	1153
7.85000	1100
7.85833	1048
7.86667	998
7.87500	949
7.88333	901
7.89167	855
7.90000	810
7.90833	767
7.91667	726
7.92500	687
7.93333	652
7.94167	620
7.95000	591
7.95833	565
7.96667	543
7.97500	525
7.98333	510
7.99167	498
8.00000	488
8.00833	480
8.01667	475
8.02500	470
8.03333	466
8.04167	461
8.05000	457
8.05833	451
8.06667	444
8.07500	437
8.08333	428
8.09167	418
8.10000	407
8.10833	395
8.11667	382
8.12500	370
8.13333	357
8.14167	343
8.15000	331
8.15833	318
8.16667	305
8.17500	294
8.18333	283
8.19167	273
8.20000	264
8.20833	255
8.21667	247
8.22500	240
8.23333	234
8.24167	229
8.25000	224
8.25833	220
8.26667	216
8.27500	213
8.28333	211
8.29167	209
8.30000	207
8.30833	205
8.31667	204
8.32500	203
8.33333	202
8.34167	201
8.35000	200
8.35833	199
8.36667	198
8.37500	197
8.38333	197
8.39167	196
8.40000	196
8.40833	195
8.41667	194
8.42500	192
8.43333	191
8.44167	190
8.45000	189
8.45833	188
8.46667	186
8.47500	185
8.48333	183
8.49167	182
8.50000	180
8.50833	179
8.51667	177
8.52500	175
8.53333	173
8.54167	172
8.55000	171
8.55833	170
8.56667	169
8.57500	168
8.58333	168
8.59167	168
8.60000	168
8.60833	169
8.61667	170
8.62500	172
8.63333	174
8.64167	177
8.65000	181
8.65833	186
8.66667	192
8.67500	199
8.68333	206
8.69167	215
8.70000	225
8.70833	235
8.71667	245
8.72500	256
8.73333	267
8.74167	278
8.75000	288
8.75833	298
8.76667	307
8.77500	315
8.78333	322
8.79167	328
8.80000	334
8.80833	339
8.81667	344
8.82500	348
8.83333	353
8.84167	359
8.85000	365
8.85833	373
8.86667	384
8.87500	398
8.88333	416
8.89167	438
8.90000	467
8.90833	502
8.91667	544
8.92500	595
8.93333	656
8.94167	726
8.95000	806
8.95833	896
8.96667	995
8.97500	1103
8.98333	1218
8.99167	1339
9.00000	1464
9.00833	1592
9.01667	1719
9.02500	1843
9.03333	1961
9.04167	2071
9.05000	2171
9.05833	2259
9.06667	2331
9.07500	2388
9.08333	2428
9.09167	2451
9.10000	2455
9.10833	2443
9.11667	2414
9.12500	2370
9.13333	2312
9.14167	2242
9.15000	2162
9.15833	2075
9.16667	1982
9.17500	1884
9.18333	1784
9.19167	1683
9.20000	1584
9.20833	1486
9.21667	1392
9.22500	1302
9.23333	1217
9.24167	1138
9.25000	1064
9.25833	997
9.26667	936
9.27500	881
9.28333	831
9.29167	787
9.30000	747
9.30833	712
9.31667	682
9.32500	656
9.33333	634
9.34167	616
9.35000	601
9.35833	590
9.36667	582
9.37500	578
9.38333	577
9.39167	581
9.40000	589
9.40833	602
9.41667	622
9.42500	649
9.43333	684
9.44167	730
9.45000	789
9.45833	864
9.46667	958
9.47500	1075
9.48333	1219
9.49167	1395
9.50000	1608
9.50833	1863
9.51667	2166
9.52500	2523
9.53333	2938
9.54167	3416
9.55000	3960
9.55833	4573
9.56667	5255
9.57500	6005
9.58333	6819
9.59167	7693
9.60000	8618
9.60833	9584
9.61667	10581
9.62500	11594
9.63333	12608
9.64167	13608
9.65000	14579
9.65833	15504
9.66667	16367
9.67500	17156
9.68333	17857
9.69167	18462
9.70000	18964
9.70833	19356
9.71667	19639
9.72500	19813
9.73333	19884
9.74167	19857
9.75000	19742
9.75833	19549
9.76667	19289
9.77500	18976
9.78333	18623
9.79167	18244
9.80000	17851
9.80833	17457
9.81667	17072
9.82500	16708
9.83333	16372
9.84167	16072
9.85000	15814
9.85833	15603
9.86667	15443
9.87500	15335
9.88333	15282
9.89167	15283
9.90000	15338
9.90833	15445
9.91667	15603
9.92500	15809
9.93333	16061
9.94167	16356
9.95000	16690
9.95833	17061
9.96667	17465
9.97500	17899
9.98333	18360
9.99167	18844
10.00000	19349
10.00833	19870
10.01667	20405
10.02500	20947
10.03333	21493
10.04167	22035
10.05000	22560
10.05833	23054
10.06667	23492
10.07500	23846
10.08333	24080
10.09167	24153
10.10000	24028
10.10833	23672
10.11667	23065
10.12500	22205
10.13333	21107
10.14167	19805
10.15000	18348
10.15833	16790
10.16667	15187
10.17500	13595
10.18333	12059
10.19167	10615
10.20000	9287
10.20833	8089
10.21667	7025
10.22500	6094
10.23333	5288
10.24167	4597
10.25000	4010
10.25833	3512
10.26667	3093
10.27500	2740
10.28333	2443
10.29167	2194
10.30000	1983
10.30833	1804
10.31667	1651
10.32500	1520
10.33333	1407
10.34167	1308
10.35000	1221
10.35833	1144
10.36667	1075
10.37500	1013
10.38333	956
10.39167	904
10.40000	856
10.40833	813
10.41667	773
10.42500	736
10.43333	702
10.44167	670
10.45000	641
10.45833	615
10.46667	591
10.47500	571
10.48333	553
10.49167	537
10.50000	524
10.50833	514
10.51667	505
10.52500	500
10.53333	497
10.54167	496
10.55000	498
10.55833	501
10.56667	507
10.57500	513
10.58333	519
10.59167	526
10.60000	533
10.60833	540
10.61667	545
10.62500	549
10.63333	552
10.64167	553
10.65000	552
10.65833	548
10.66667	542
10.67500	534
10.68333	524
10.69167	512
10.70000	498
10.70833	483
10.71667	466
10.72500	449
10.73333	430
10.74167	411
10.75000	392
10.75833	374
10.76667	355
10.77500	337
10.78333	320
10.79167	304
10.80000	289
10.80833	275
10.81667	262
10.82500	251
10.83333	241
10.84167	232
10.85000	224
10.85833	216
10.86667	210
10.87500	204
10.88333	198
10.89167	193
10.90000	189
10.90833	184
10.91667	181
10.92500	177
10.93333	174
10.94167	171
10.95000	168
10.95833	165
10.96667	163
10.97500	161
10.98333	159
10.99167	157
11.00000	155
11.00833	154
11.01667	153
11.02500	152
11.03333	153
11.04167	154
11.05000	156
11.05833	159
11.06667	163
11.07500	168
11.08333	175
11.09167	183
11.10000	193
11.10833	205
11.11667	219
11.12500	236
11.13333	256
11.14167	278
11.15000	303
11.15833	331
11.16667	362
11.17500	394
11.18333	429
11.19167	466
11.20000	504
11.20833	542
11.21667	580
11.22500	618
11.23333	653
11.24167	686
11.25000	716
11.25833	742
11.26667	762
11.27500	778
11.28333	788
11.29167	792
11.30000	791
11.30833	785
11.31667	774
11.32500	758
11.33333	738
11.34167	714
11.35000	688
11.35833	660
11.36667	630
11.37500	600
11.38333	569
11.39167	539
11.40000	509
11.40833	480
11.41667	453
11.42500	427
11.43333	402
11.44167	379
11.45000	357
11.45833	337
11.46667	318
11.47500	301
11.48333	285
11.49167	270
11.50000	257
11.50833	245
11.51667	234
11.52500	223
11.53333	213
11.54167	205
11.55000	196
11.55833	189
11.56667	182
11.57500	175
11.58333	169
11.59167	163
11.60000	158
11.60833	154
11.61667	150
11.62500	147
11.63333	144
11.64167	141
11.65000	139
11.65833	137
11.66667	135
11.67500	133
11.68333	131
11.69167	129
11.70000	128
11.70833	127
11.71667	126
11.72500	125
11.73333	124
11.74167	124
11.75000	123
11.75833	122
11.76667	122
11.77500	121
11.78333	121
11.79167	121
11.80000	121
11.80833	121
11.81667	120
11.82500	120
11.83333	120
11.84167	119
11.85000	118
11.85833	116
11.86667	115
11.87500	113
11.88333	111
11.89167	109
11.90000	108
11.90833	106
11.91667	104
11.92500	102
11.93333	100
11.94167	98
11.95000	96
11.95833	94
11.96667	92
11.97500	90
11.98333	88
11.99167	86
12.00000	85
12.00833	83
12.01667	81
12.02500	80
12.03333	79
12.04167	78
12.05000	77
12.05833	76
12.06667	76
12.07500	75
12.08333	75
12.09167	75
12.10000	74
12.10833	74
12.11667	73
12.12500	73
12.13333	73
12.14167	72
12.15000	72
12.15833	72
12.16667	71
12.17500	71
12.18333	70
12.19167	70
12.20000	70
12.20833	69
12.21667	69
12.22500	68
12.23333	67
12.24167	66
12.25000	65
12.25833	65
12.26667	64
12.27500	63
12.28333	62
12.29167	62
12.30000	62
12.30833	61
12.31667	60
12.32500	60
12.33333	59
12.34167	58
12.35000	57
12.35833	56
12.36667	56
12.37500	55
12.38333	54
12.39167	53
12.40000	52
12.40833	51
12.41667	50
12.42500	49
12.43333	49
12.44167	48
12.45000	48
12.45833	48
12.46667	48
12.47500	47
12.48333	47
12.49167	47
12.50000	47
12.50833	47
12.51667	47
12.52500	47
12.53333	47
12.54167	47
12.55000	48
12.55833	48
12.56667	49
12.57500	49
12.58333	50
12.59167	50
12.60000	51
12.60833	51
12.61667	52
12.62500	52
12.63333	53
12.64167	54
12.65000	55
12.65833	56
12.66667	58
12.67500	59
12.68333	60
12.69167	61
12.70000	62
12.70833	63
12.71667	64
12.72500	64
12.73333	65
12.74167	66
12.75000	66
12.75833	67
12.76667	68
12.77500	69
12.78333	69
12.79167	70
12.80000	71
12.80833	71
12.81667	72
12.82500	72
12.83333	73
12.84167	73
12.85000	74
12.85833	75
12.86667	75
12.87500	76
12.88333	77
12.89167	78
12.90000	79
12.90833	80
12.91667	81
12.92500	82
12.93333	84
12.94167	85
12.95000	87
12.95833	88
12.96667	90
12.97500	91
12.98333	93
12.99167	95
13.00000	97
13.00833	99
13.01667	101
13.02500	102
13.03333	103
13.04167	104
13.05000	105
13.05833	106
13.06667	107
13.07500	108
13.08333	109
13.09167	110
13.10000	111
13.10833	111
13.11667	111
13.12500	111
13.13333	111
13.14167	111
13.15000	110
13.15833	110
13.16667	109
13.17500	108
13.18333	108
13.19167	107
13.20000	107
13.20833	106
13.21667	106
13.22500	106
13.23333	106
13.24167	106
13.25000	105
13.25833	105
13.26667	105
13.27500	105
13.28333	105
13.29167	105
13.30000	106
13.30833	107
13.31667	108
13.32500	109
13.33333	109
13.34167	110
13.35000	110
13.35833	111
13.36667	112
13.37500	114
13.38333	115
13.39167	116
13.40000	117
13.40833	118
13.41667	120
13.42500	121
13.43333	123
13.44167	124
13.45000	126
13.45833	127
13.46667	129
13.47500	130
13.48333	132
13.49167	134
13.50000	136
13.50833	138
13.51667	141
13.52500	143
13.53333	146
13.54167	149
13.55000	152
13.55833	156
13.56667	160
13.57500	165
13.58333	170
13.59167	175
13.60000	181
13.60833	187
13.61667	194
13.62500	201
13.63333	209
13.64167	217
13.65000	226
13.65833	234
13.66667	244
13.67500	253
13.68333	262
13.69167	272
13.70000	282
13.70833	292
13.71667	302
13.72500	312
13.73333	321
13.74167	330
13.75000	339
13.75833	347
13.76667	355
13.77500	363
13.78333	371
13.79167	379
13.80000	386
13.80833	393
13.81667	400
13.82500	408
13.83333	415
13.84167	422
13.85000	429
13.85833	437
13.86667	444
13.87500	452
13.88333	460
13.89167	469
13.90000	477
13.90833	485
13.91667	493
13.92500	500
13.93333	507
13.94167	514
13.95000	520
13.95833	524
13.96667	528
13.97500	530
13.98333	531
13.99167	532
14.00000	531
14.00833	528
14.01667	525
14.02500	521
14.03333	516
14.04167	511
14.05000	504
14.05833	497
14.06667	489
14.07500	481
14.08333	473
14.09167	464
14.10000	456
14.10833	448
14.11667	440
14.12500	432
14.13333	424
14.14167	417
14.15000	410
14.15833	403
14.16667	397
14.17500	392
14.18333	387
14.19167	382
14.20000	378
14.20833	374
14.21667	371
14.22500	369
14.23333	367
14.24167	365
14.25000	364
14.25833	363
14.26667	362
14.27500	362
14.28333	362
14.29167	363
14.30000	363
14.30833	364
14.31667	365
14.32500	366
14.33333	367
14.34167	368
14.35000	370
14.35833	372
14.36667	374
14.37500	375
14.38333	377
14.39167	378
14.40000	380
14.40833	381
14.41667	383
14.42500	385
14.43333	386
14.44167	388
14.45000	389
14.45833	391
14.46667	392
14.47500	393
14.48333	395
14.49167	396
14.50000	397
14.50833	398
14.51667	398
14.52500	398
14.53333	399
14.54167	400
14.55000	400
14.55833	400
14.56667	400
14.57500	400
14.58333	400
14.59167	399
14.60000	398
14.60833	397
14.61667	396
14.62500	395
14.63333	394
14.64167	393
14.65000	392
14.65833	390
14.66667	388
14.67500	387
14.68333	385
14.69167	384
14.70000	382
14.70833	381
14.71667	379
14.72500	378
14.73333	376
14.74167	374
14.75000	372
14.75833	371
14.76667	369
14.77500	367
14.78333	366
14.79167	364
14.80000	363
14.80833	361
14.81667	360
14.82500	358
14.83333	358
14.84167	357
14.85000	357
14.85833	356
14.86667	355
14.87500	354
14.88333	354
14.89167	353
14.90000	353
14.90833	352
14.91667	352
14.92500	352
14.93333	353
14.94167	353
14.95000	353
14.95833	354
14.96667	356
14.97500	358
14.98333	360
14.99167	363
15.00000	366
15.00833	369
15.01667	374
15.02500	379
15.03333	385
15.04167	392
15.05000	401
15.05833	410
15.06667	421
15.07500	434
15.08333	449
15.09167	465
15.10000	484
15.10833	504
15.11667	526
15.12500	550
15.13333	576
15.14167	603
15.15000	633
15.15833	664
15.16667	696
15.17500	731
15.18333	765
15.19167	800
15.20000	835
15.20833	870
15.21667	903
15.22500	935
15.23333	966
15.24167	993
15.25000	1018
15.25833	1040
15.26667	1058
15.27500	1072
15.28333	1082
15.29167	1087
15.30000	1088
15.30833	1084
15.31667	1077
15.32500	1065
15.33333	1049
15.34167	1030
15.35000	1007
15.35833	981
15.36667	952
15.37500	920
15.38333	887
15.39167	853
15.40000	818
15.40833	782
15.41667	746
15.42500	710
15.43333	675
15.44167	640
15.45000	606
15.45833	572
15.46667	541
15.47500	510
15.48333	481
15.49167	454
15.50000	428
15.50833	404
15.51667	381
15.52500	360
15.53333	340
15.54167	322
15.55000	305
15.55833	289
15.56667	274
15.57500	261
15.58333	249
15.59167	238
15.60000	227
15.60833	218
15.61667	209
15.62500	201
15.63333	193
15.64167	186
15.65000	180
15.65833	174
15.66667	169
15.67500	164
15.68333	160
15.69167	156
15.70000	153
15.70833	149
15.71667	147
15.72500	144
15.73333	141
15.74167	139
15.75000	137
15.75833	135
15.76667	133
15.77500	132
15.78333	131
15.79167	129
15.80000	128
15.80833	127
15.81667	126
15.82500	125
15.83333	124
15.84167	124
15.85000	124
15.85833	124
15.86667	124
15.87500	124
15.88333	124
15.89167	124
15.90000	125
15.90833	126
15.91667	127
15.92500	128
15.93333	129
15.94167	131
15.95000	134
15.95833	136
15.96667	140
15.97500	144
15.98333	148
15.99167	153
16.00000	158
16.00833	165
16.01667	171
16.02500	178
16.03333	186
16.04167	193
16.05000	201
16.05833	209
16.06667	216
16.07500	224
16.08333	232
16.09167	239
16.10000	246
16.10833	253
16.11667	260
16.12500	265
16.13333	270
16.14167	274
16.15000	277
16.15833	279
16.16667	280
16.17500	281
16.18333	281
16.19167	281
16.20000	279
16.20833	277
16.21667	274
16.22500	271
16.23333	267
16.24167	263
16.25000	259
16.25833	254
16.26667	250
16.27500	245
16.28333	241
16.29167	236
16.30000	233
16.30833	230
16.31667	227
16.32500	225
16.33333	224
16.34167	222
16.35000	221
16.35833	221
16.36667	221
16.37500	223
16.38333	224
16.39167	226
16.40000	229
16.40833	233
16.41667	237
16.42500	242
16.43333	248
16.44167	255
16.45000	262
16.45833	269
16.46667	277
16.47500	285
16.48333	295
16.49167	304
16.50000	314
16.50833	325
16.51667	336
16.52500	348
16.53333	359
16.54167	371
16.55000	383
16.55833	395
16.56667	407
16.57500	419
16.58333	430
16.59167	440
16.60000	450
16.60833	460
16.61667	468
16.62500	475
16.63333	481
16.64167	487
16.65000	491
16.65833	493
16.66667	495
16.67500	494
16.68333	492
16.69167	489
16.70000	484
16.70833	478
16.71667	471
16.72500	462
16.73333	452
16.74167	441
16.75000	430
16.75833	418
16.76667	406
16.77500	393
16.78333	380
16.79167	366
16.80000	353
16.80833	339
16.81667	325
16.82500	312
16.83333	299
16.84167	287
16.85000	275
16.85833	263
16.86667	252
16.87500	242
16.88333	232
16.89167	222
16.90000	213
16.90833	204
16.91667	196
16.92500	188
16.93333	181
16.94167	175
16.95000	169
16.95833	163
16.96667	158
16.97500	153
16.98333	148
16.99167	144
17.00000	141
17.00833	137
17.01667	134
17.02500	131
17.03333	128
17.04167	125
17.05000	122
17.05833	119
17.06667	117
17.07500	115
17.08333	112
17.09167	111
17.10000	109
17.10833	107
17.11667	105
17.12500	103
17.13333	101
17.14167	100
17.15000	98
17.15833	96
17.16667	95
17.17500	94
17.18333	93
17.19167	92
17.20000	91
17.20833	91
17.21667	89
17.22500	88
17.23333	87
17.24167	85
17.25000	85
17.25833	84
17.26667	83
17.27500	82
17.28333	82
17.29167	81
17.30000	80
17.30833	80
17.31667	79
17.32500	79
17.33333	78
17.34167	78
17.35000	77
17.35833	77
17.36667	77
17.37500	77
17.38333	77
17.39167	77
17.40000	77
17.40833	77
17.41667	77
17.42500	76
17.43333	76
17.44167	76
17.45000	76
17.45833	77
17.46667	77
17.47500	78
17.48333	78
17.49167	79
17.50000	79
17.50833	80
17.51667	80
17.52500	81
17.53333	81
17.54167	82
17.55000	82
17.55833	83
17.56667	84
17.57500	85
17.58333	86
17.59167	88
17.60000	89
17.60833	91
17.61667	93
17.62500	95
17.63333	98
17.64167	101
17.65000	104
17.65833	107
17.66667	111
17.67500	115
17.68333	119
17.69167	123
17.70000	128
17.70833	133
17.71667	139
17.72500	146
17.73333	152
17.74167	160
17.75000	169
17.75833	178
17.76667	188
17.77500	199
17.78333	212
17.79167	225
17.80000	240
17.80833	257
17.81667	275
17.82500	294
17.83333	316
17.84167	341
17.85000	368
17.85833	397
17.86667	430
17.87500	466
17.88333	505
17.89167	548
17.90000	594
17.90833	645
17.91667	700
17.92500	759
17.93333	823
17.94167	891
17.95000	963
17.95833	1041
17.96667	1123
17.97500	1209
17.98333	1299
17.99167	1392
18.00000	1488
18.00833	1586
18.01667	1686
18.02500	1787
18.03333	1887
18.04167	1987
18.05000	2085
18.05833	2180
18.06667	2271
18.07500	2358
18.08333	2438
18.09167	2513
18.10000	2579
18.10833	2638
18.11667	2687
18.12500	2727
18.13333	2757
18.14167	2777
18.15000	2787
18.15833	2786
18.16667	2774
18.17500	2753
18.18333	2721
18.19167	2681
18.20000	2632
18.20833	2575
18.21667	2511
18.22500	2440
18.23333	2364
18.24167	2284
18.25000	2199
18.25833	2111
18.26667	2022
18.27500	1932
18.28333	1841
18.29167	1750
18.30000	1660
18.30833	1572
18.31667	1486
18.32500	1402
18.33333	1320
18.34167	1242
18.35000	1167
18.35833	1096
18.36667	1029
18.37500	965
18.38333	906
18.39167	849
18.40000	796
18.40833	747
18.41667	701
18.42500	658
18.43333	618
18.44167	581
18.45000	547
18.45833	516
18.46667	487
18.47500	461
18.48333	437
18.49167	415
18.50000	396
18.50833	377
18.51667	361
18.52500	345
18.53333	331
18.54167	318
18.55000	307
18.55833	297
18.56667	288
18.57500	280
18.58333	272
18.59167	266
18.60000	261
18.60833	256
18.61667	252
18.62500	250
18.63333	248
18.64167	246
18.65000	246
18.65833	246
18.66667	247
18.67500	248
18.68333	250
18.69167	253
18.70000	257
18.70833	261
18.71667	266
18.72500	272
18.73333	279
18.74167	286
18.75000	293
18.75833	301
18.76667	310
18.77500	318
18.78333	328
18.79167	338
18.80000	348
18.80833	358
18.81667	368
18.82500	379
18.83333	388
18.84167	398
18.85000	407
18.85833	416
18.86667	425
18.87500	433
18.88333	441
18.89167	448
18.90000	454
18.90833	459
18.91667	464
18.92500	467
18.93333	469
18.94167	470
18.95000	470
18.95833	469
18.96667	467
18.97500	465
18.98333	461
18.99167	456
19.00000	451
19.00833	445
19.01667	438
19.02500	430
19.03333	422
19.04167	414
19.05000	405
19.05833	395
19.06667	386
19.07500	376
19.08333	365
19.09167	355
19.10000	345
19.10833	335
19.11667	325
19.12500	316
19.13333	307
19.14167	298
19.15000	289
19.15833	281
19.16667	273
19.17500	266
19.18333	259
19.19167	252
19.20000	246
19.20833	241
19.21667	235
19.22500	230
19.23333	226
19.24167	222
19.25000	218
19.25833	214
19.26667	211
19.27500	208
19.28333	206
19.29167	204
19.30000	202
19.30833	201
19.31667	200
19.32500	199
19.33333	198
19.34167	198
19.35000	197
19.35833	197
19.36667	197
19.37500	197
19.38333	197
19.39167	197
19.40000	198
19.40833	198
19.41667	199
19.42500	200
19.43333	200
19.44167	201
19.45000	202
19.45833	203
19.46667	204
19.47500	205
19.48333	205
19.49167	206
19.50000	207
19.50833	207
19.51667	208
19.52500	209
19.53333	209
19.54167	210
19.55000	211
19.55833	211
19.56667	212
19.57500	212
19.58333	213
19.59167	213
19.60000	213
19.60833	213
19.61667	213
19.62500	213
19.63333	212
19.64167	212
19.65000	213
19.65833	213
19.66667	213
19.67500	213
19.68333	213
19.69167	213
19.70000	213
19.70833	213
19.71667	213
19.72500	213
19.73333	213
19.74167	213
19.75000	213
19.75833	212
19.76667	212
19.77500	212
19.78333	212
19.79167	212
19.80000	212
19.80833	212
19.81667	212
19.82500	212
19.83333	212
19.84167	212
19.85000	212
19.85833	212
19.86667	212
19.87500	212
19.88333	212
19.89167	211
19.90000	211
19.90833	211
19.91667	211
19.92500	211
19.93333	210
19.94167	210
19.95000	210
19.95833	210
19.96667	211
19.97500	211
19.98333	211
19.99167	211
20.00000	211
20.00833	212
20.01667	212
20.02500	212
20.03333	213
20.04167	213
20.05000	214
20.05833	214
20.06667	215
20.07500	215
20.08333	216
20.09167	216
20.10000	217
20.10833	217
20.11667	218
20.12500	219
20.13333	219
20.14167	220
20.15000	220
20.15833	221
20.16667	221
20.17500	222
20.18333	222
20.19167	223
20.20000	224
20.20833	224
20.21667	225
20.22500	226
20.23333	227
20.24167	228
20.25000	229
20.25833	230
20.26667	231
20.27500	233
20.28333	234
20.29167	235
20.30000	237
20.30833	238
20.31667	240
20.32500	241
20.33333	243
20.34167	245
20.35000	246
20.35833	248
20.36667	251
20.37500	253
20.38333	255
20.39167	258
20.40000	261
20.40833	263
20.41667	266
20.42500	270
20.43333	273
20.44167	277
20.45000	281
20.45833	286
20.46667	290
20.47500	295
20.48333	300
20.49167	305
20.50000	311
20.50833	317
20.51667	324
20.52500	330
20.53333	337
20.54167	345
20.55000	353
20.55833	361
20.56667	370
20.57500	381
20.58333	392
20.59167	403
20.60000	416
20.60833	430
20.61667	445
20.62500	461
20.63333	478
20.64167	496
20.65000	515
20.65833	535
20.66667	557
20.67500	580
20.68333	604
20.69167	630
20.70000	658
20.70833	686
20.71667	716
20.72500	747
20.73333	780
20.74167	813
20.75000	847
20.75833	883
20.76667	920
20.77500	957
20.78333	995
20.79167	1033
20.80000	1072
20.80833	1111
20.81667	1151
20.82500	1191
20.83333	1231
20.84167	1271
20.85000	1310
20.85833	1348
20.86667	1386
20.87500	1423
20.88333	1459
20.89167	1495
20.90000	1529
20.90833	1563
20.91667	1596
20.92500	1628
20.93333	1660
20.94167	1690
20.95000	1720
20.95833	1750
20.96667	1779
20.97500	1807
20.98333	1836
20.99167	1865
21.00000	1895
21.00833	1925
21.01667	1956
21.02500	1988
21.03333	2021
21.04167	2056
21.05000	2094
21.05833	2134
21.06667	2176
21.07500	2221
21.08333	2270
21.09167	2324
21.10000	2382
21.10833	2445
21.11667	2514
21.12500	2588
21.13333	2670
21.14167	2759
21.15000	2856
21.15833	2961
21.16667	3075
21.17500	3198
21.18333	3332
21.19167	3477
21.20000	3634
21.20833	3803
21.21667	3985
21.22500	4180
21.23333	4389
21.24167	4611
21.25000	4848
21.25833	5099
21.26667	5365
21.27500	5645
21.28333	5939
21.29167	6247
21.30000	6569
21.30833	6903
21.31667	7248
21.32500	7603
21.33333	7967
21.34167	8339
21.35000	8717
21.35833	9099
21.36667	9483
21.37500	9868
21.38333	10251
21.39167	10630
21.40000	11003
21.40833	11365
21.41667	11717
21.42500	12056
21.43333	12378
21.44167	12682
21.45000	12965
21.45833	13225
21.46667	13461
21.47500	13671
21.48333	13852
21.49167	14005
21.50000	14128
21.50833	14220
21.51667	14281
21.52500	14310
21.53333	14308
21.54167	14274
21.55000	14210
21.55833	14115
21.56667	13991
21.57500	13838
21.58333	13658
21.59167	13452
21.60000	13223
21.60833	12972
21.61667	12701
21.62500	12411
21.63333	12106
21.64167	11786
21.65000	11453
21.65833	11111
21.66667	10760
21.67500	10403
21.68333	10042
21.69167	9678
21.70000	9313
21.70833	8949
21.71667	8588
21.72500	8230
21.73333	7878
21.74167	7531
21.75000	7191
21.75833	6860
21.76667	6537
21.77500	6224
21.78333	5920
21.79167	5627
21.80000	5344
21.80833	5073
21.81667	4812
21.82500	4563
21.83333	4325
21.84167	4098
21.85000	3882
21.85833	3676
21.86667	3481
21.87500	3295
21.88333	3119
21.89167	2953
21.90000	2796
21.90833	2648
21.91667	2507
21.92500	2374
21.93333	2249
21.94167	2132
21.95000	2022
21.95833	1918
21.96667	1822
21.97500	1731
21.98333	1645
21.99167	1564
22.00000	1488
22.00833	1417
22.01667	1350
22.02500	1287
22.03333	1228
22.04167	1174
22.05000	1123
22.05833	1076
22.06667	1031
22.07500	990
22.08333	951
22.09167	915
22.10000	881
22.10833	850
22.11667	821
22.12500	795
22.13333	770
22.14167	747
22.15000	726
22.15833	707
22.16667	689
22.17500	673
22.18333	659
22.19167	645
22.20000	633
22.20833	622
22.21667	612
22.22500	604
22.23333	596
22.24167	589
22.25000	582
22.25833	576
22.26667	571
22.27500	567
22.28333	563
22.29167	559
22.30000	556
22.30833	554
22.31667	551
22.32500	549
22.33333	547
22.34167	545
22.35000	543
22.35833	542
22.36667	540
22.37500	539
22.38333	537
22.39167	535
22.40000	533
22.40833	530
22.41667	528
22.42500	525
22.43333	523
22.44167	520
22.45000	516
22.45833	513
22.46667	509
22.47500	505
22.48333	501
22.49167	496
22.50000	491
22.50833	485
22.51667	480
22.52500	475
22.53333	468
22.54167	462
22.55000	456
22.55833	449
22.56667	442
22.57500	435
22.58333	429
22.59167	421
22.60000	414
22.60833	407
22.61667	399
22.62500	391
22.63333	384
22.64167	376
22.65000	369
22.65833	361
22.66667	353
22.67500	346
22.68333	339
22.69167	332
22.70000	325
22.70833	319
22.71667	313
22.72500	307
22.73333	301
22.74167	296
22.75000	291
22.75833	287
22.76667	283
22.77500	279
22.78333	275
22.79167	271
22.80000	267
22.80833	264
22.81667	262
22.82500	260
22.83333	258
22.84167	257
22.85000	256
22.85833	255
22.86667	254
22.87500	254
22.88333	254
22.89167	254
22.90000	255
22.90833	256
22.91667	257
22.92500	259
22.93333	260
22.94167	262
22.95000	265
22.95833	267
22.96667	269
22.97500	272
22.98333	274
22.99167	277
23.00000	279
23.00833	282
23.01667	286
23.02500	289
23.03333	292
23.04167	295
23.05000	298
23.05833	300
23.06667	303
23.07500	305
23.08333	308
23.09167	310
23.10000	312
23.10833	315
23.11667	316
23.12500	318
23.13333	320
23.14167	322
23.15000	323
23.15833	324
23.16667	325
23.17500	326
23.18333	327
23.19167	328
23.20000	329
23.20833	330
23.21667	330
23.22500	330
23.23333	330
23.24167	330
23.25000	331
23.25833	330
23.26667	330
23.27500	330
23.28333	329
23.29167	329
23.30000	329
23.30833	329
23.31667	328
23.32500	328
23.33333	327
23.34167	327
23.35000	326
23.35833	325
23.36667	324
23.37500	324
23.38333	323
23.39167	322
23.40000	322
23.40833	321
23.41667	320
23.42500	319
23.43333	318
23.44167	317
23.45000	316
23.45833	316
23.46667	315
23.47500	314
23.48333	313
23.49167	313
23.50000	312
23.50833	312
23.51667	311
23.52500	310
23.53333	310
23.54167	309
23.55000	309
23.55833	308
23.56667	307
23.57500	307
23.58333	306
23.59167	306
23.60000	305
23.60833	305
23.61667	304
23.62500	303
23.63333	303
23.64167	302
23.65000	302
23.65833	302
23.66667	301
23.67500	301
23.68333	301
23.69167	300
23.70000	300
23.70833	300
23.71667	299
23.72500	299
23.73333	299
23.74167	299
23.75000	299
23.75833	299
23.76667	298
23.77500	298
23.78333	298
23.79167	298
23.80000	298
23.80833	297
23.81667	297
23.82500	297
23.83333	297
23.84167	297
23.85000	296
23.85833	296
23.86667	296
23.87500	296
23.88333	296
23.89167	295
23.90000	296
23.90833	296
23.91667	296
23.92500	296
23.93333	296
23.94167	295
23.95000	295
23.95833	294
23.96667	294
23.97500	294
23.98333	294
23.99167	294
24.00000	294
24.00833	294
24.01667	293
24.02500	293
24.03333	293
24.04167	293
24.05000	293
24.05833	292
24.06667	292
24.07500	291
24.08333	291
24.09167	290
24.10000	290
24.10833	289
24.11667	288
24.12500	287
24.13333	286
24.14167	285
24.15000	285
24.15833	284
24.16667	283
24.17500	282
24.18333	281
24.19167	279
24.20000	278
24.20833	276
24.21667	275
24.22500	273
24.23333	270
24.24167	269
24.25000	267
24.25833	265
24.26667	263
24.27500	261
24.28333	259
24.29167	257
24.30000	255
24.30833	254
24.31667	251
24.32500	249
24.33333	247
24.34167	245
24.35000	243
24.35833	240
24.36667	238
24.37500	236
24.38333	234
24.39167	233
24.40000	231
24.40833	230
24.41667	228
24.42500	227
24.43333	225
24.44167	224
24.45000	222
24.45833	220
24.46667	219
24.47500	218
24.48333	217
24.49167	216
24.50000	215
24.50833	215
24.51667	214
24.52500	213
24.53333	212
24.54167	212
24.55000	211
24.55833	211
24.56667	210
24.57500	209
24.58333	209
24.59167	209
24.60000	209
24.60833	209
24.61667	209
24.62500	209
24.63333	209
24.64167	209
24.65000	208
24.65833	209
24.66667	209
24.67500	210
24.68333	210
24.69167	210
24.70000	211
24.70833	211
24.71667	211
24.72500	211
24.73333	212
24.74167	212
24.75000	212
24.75833	212
24.76667	213
24.77500	213
24.78333	214
24.79167	214
24.80000	214
24.80833	215
24.81667	215
24.82500	215
24.83333	216
24.84167	216
24.85000	216
24.85833	217
24.86667	217
24.87500	217
24.88333	217
24.89167	217
24.90000	217
24.90833	217
24.91667	217
24.92500	217
24.93333	217
24.94167	217
24.95000	217
24.95833	217
24.96667	217
24.97500	217
24.98333	217
24.99167	218
25.00000	218
25.00833	218
25.01667	218
25.02500	218
25.03333	218
25.04167	218
25.05000	218
25.05833	217
25.06667	217
25.07500	218
25.08333	218
25.09167	218
25.10000	217
25.10833	217
25.11667	217
25.12500	216
25.13333	217
25.14167	217
25.15000	217
25.15833	217
25.16667	217
25.17500	217
25.18333	217
25.19167	217
25.20000	217
25.20833	217
25.21667	217
25.22500	217
25.23333	217
25.24167	216
25.25000	216
25.25833	216
25.26667	216
25.27500	216
25.28333	216
25.29167	216
25.30000	216
25.30833	216
25.31667	216
25.32500	216
25.33333	216
25.34167	216
25.35000	216
25.35833	216
25.36667	216
25.37500	216
25.38333	216
25.39167	216
25.40000	216
25.40833	216
25.41667	216
25.42500	216
25.43333	216
25.44167	217
25.45000	217
25.45833	217
25.46667	218
25.47500	218
25.48333	219
25.49167	219
25.50000	220
25.50833	220
25.51667	220
25.52500	221
25.53333	221
25.54167	222
25.55000	222
25.55833	222
25.56667	223
25.57500	223
25.58333	224
25.59167	225
25.60000	226
25.60833	227
25.61667	227
25.62500	228
25.63333	228
25.64167	229
25.65000	230
25.65833	231
25.66667	232
25.67500	233
25.68333	234
25.69167	234
25.70000	235
25.70833	235
25.71667	235
25.72500	236
25.73333	236
25.74167	237
25.75000	238
25.75833	239
25.76667	240
25.77500	240
25.78333	242
25.79167	243
25.80000	244
25.80833	245
25.81667	246
25.82500	247
25.83333	248
25.84167	249
25.85000	251
25.85833	252
25.86667	253
25.87500	254
25.88333	256
25.89167	258
25.90000	259
25.90833	261
25.91667	263
25.92500	265
25.93333	267
25.94167	269
25.95000	271
25.95833	274
25.96667	277
25.97500	280
25.98333	283
25.99167	287
26.00000	291
26.00833	295
26.01667	299
26.02500	303
26.03333	308
26.04167	313
26.05000	319
26.05833	325
26.06667	331
26.07500	337
26.08333	344
26.09167	352
26.10000	359
26.10833	368
26.11667	377
26.12500	386
26.13333	396
26.14167	407
26.15000	419
26.15833	431
26.16667	444
26.17500	458
26.18333	472
26.19167	487
26.20000	503
26.20833	520
26.21667	537
26.22500	556
26.23333	575
26.24167	595
26.25000	615
26.25833	637
26.26667	660
26.27500	684
26.28333	709
26.29167	734
26.30000	760
26.30833	787
26.31667	815
26.32500	843
26.33333	871
26.34167	901
26.35000	930
26.35833	959
26.36667	989
26.37500	1018
26.38333	1048
26.39167	1077
26.40000	1106
26.40833	1134
26.41667	1161
26.42500	1188
26.43333	1213
26.44167	1237
26.45000	1261
26.45833	1283
26.46667	1303
26.47500	1322
26.48333	1339
26.49167	1355
26.50000	1369
26.50833	1381
26.51667	1390
26.52500	1397
26.53333	1403
26.54167	1406
26.55000	1407
26.55833	1405
26.56667	1401
26.57500	1395
26.58333	1387
26.59167	1377
26.60000	1365
26.60833	1350
26.61667	1334
26.62500	1316
26.63333	1296
26.64167	1275
26.65000	1252
26.65833	1228
26.66667	1203
26.67500	1177
26.68333	1150
26.69167	1122
26.70000	1094
26.70833	1065
26.71667	1035
26.72500	1005
26.73333	975
26.74167	945
26.75000	915
26.75833	885
26.76667	856
26.77500	827
26.78333	798
26.79167	770
26.80000	743
26.80833	716
26.81667	690
26.82500	664
26.83333	640
26.84167	616
26.85000	592
26.85833	570
26.86667	548
26.87500	528
26.88333	509
26.89167	490
26.90000	472
26.90833	455
26.91667	439
26.92500	423
26.93333	408
26.94167	394
26.95000	381
26.95833	368
26.96667	357
26.97500	345
26.98333	334
26.99167	324
27.00000	315
27.00833	306
27.01667	297
27.02500	289
27.03333	282
27.04167	275
27.05000	269
27.05833	263
27.06667	257
27.07500	252
27.08333	247
27.09167	242
27.10000	237
27.10833	233
27.11667	228
27.12500	225
27.13333	221
27.14167	217
27.15000	214
27.15833	210
27.16667	207
27.17500	204
27.18333	201
27.19167	198
27.20000	195
27.20833	193
27.21667	191
27.22500	189
27.23333	187
27.24167	185
27.25000	183
27.25833	181
27.26667	179
27.27500	178
27.28333	176
27.29167	175
27.30000	173
27.30833	172
27.31667	171
27.32500	169
27.33333	168
27.34167	167
27.35000	166
27.35833	164
27.36667	163
27.37500	162
27.38333	161
27.39167	160
27.40000	159
27.40833	158
27.41667	157
27.42500	156
27.43333	155
27.44167	155
27.45000	154
27.45833	153
27.46667	153
27.47500	152
27.48333	151
27.49167	150
27.50000	150
27.50833	149
27.51667	148
27.52500	148
27.53333	147
27.54167	147
27.55000	146
27.55833	146
27.56667	145
27.57500	145
27.58333	145
27.59167	144
27.60000	143
27.60833	142
27.61667	142
27.62500	141
27.63333	140
27.64167	140
27.65000	139
27.65833	139
27.66667	139
27.67500	138
27.68333	138
27.69167	138
27.70000	137
27.70833	137
27.71667	137
27.72500	136
27.73333	136
27.74167	136
27.75000	135
27.75833	135
27.76667	135
27.77500	134
27.78333	134
27.79167	134
27.80000	134
27.80833	133
27.81667	133
27.82500	133
27.83333	133
27.84167	132
27.85000	132
27.85833	131
27.86667	131
27.87500	131
27.88333	131
27.89167	130
27.90000	130
27.90833	129
27.91667	129
27.92500	128
27.93333	128
27.94167	127
27.95000	127
27.95833	126
27.96667	126
27.97500	126
27.98333	125
27.99167	125
28.00000	124

