R.Time (min)	Intensity
0.00000	-54
0.00833	-54
0.01667	-30
0.02500	-1
0.03333	-1
0.04167	-2
0.05000	-3
0.05833	-4
0.06667	-5
0.07500	-6
0.08333	-7
0.09167	-8
0.10000	-8
0.10833	-9
0.11667	-9
0.12500	-10
0.13333	-10
0.14167	-10
0.15000	-11
0.15833	-12
0.16667	-13
0.17500	-13
0.18333	-14
0.19167	-14
0.20000	-15
0.20833	-16
0.21667	-17
0.22500	-18
0.23333	-19
0.24167	-19
0.25000	-20
0.25833	-21
0.26667	-21
0.27500	-22
0.28333	-23
0.29167	-24
0.30000	-24
0.30833	-25
0.31667	-26
0.32500	-26
0.33333	-27
0.34167	-28
0.35000	-28
0.35833	-29
0.36667	-29
0.37500	-30
0.38333	-31
0.39167	-31
0.40000	-32
0.40833	-33
0.41667	-33
0.42500	-34
0.43333	-34
0.44167	-35
0.45000	-36
0.45833	-36
0.46667	-37
0.47500	-38
0.48333	-39
0.49167	-40
0.50000	-40
0.50833	-41
0.51667	-42
0.52500	-42
0.53333	-43
0.54167	-43
0.55000	-44
0.55833	-44
0.56667	-45
0.57500	-45
0.58333	-45
0.59167	-46
0.60000	-46
0.60833	-47
0.61667	-47
0.62500	-47
0.63333	-48
0.64167	-48
0.65000	-48
0.65833	-48
0.66667	-49
0.67500	-49
0.68333	-49
0.69167	-50
0.70000	-50
0.70833	-51
0.71667	-52
0.72500	-53
0.73333	-54
0.74167	-55
0.75000	-55
0.75833	-56
0.76667	-57
0.77500	-57
0.78333	-57
0.79167	-58
0.80000	-58
0.80833	-59
0.81667	-59
0.82500	-60
0.83333	-60
0.84167	-61
0.85000	-62
0.85833	-62
0.86667	-62
0.87500	-63
0.88333	-63
0.89167	-64
0.90000	-65
0.90833	-65
0.91667	-65
0.92500	-66
0.93333	-66
0.94167	-66
0.95000	-67
0.95833	-68
0.96667	-68
0.97500	-69
0.98333	-69
0.99167	-69
1.00000	-69
1.00833	-70
1.01667	-70
1.02500	-71
1.03333	-71
1.04167	-71
1.05000	-72
1.05833	-72
1.06667	-73
1.07500	-73
1.08333	-73
1.09167	-74
1.10000	-74
1.10833	-75
1.11667	-75
1.12500	-75
1.13333	-76
1.14167	-76
1.15000	-77
1.15833	-78
1.16667	-78
1.17500	-79
1.18333	-79
1.19167	-80
1.20000	-80
1.20833	-80
1.21667	-80
1.22500	-80
1.23333	-80
1.24167	-80
1.25000	-80
1.25833	-81
1.26667	-81
1.27500	-82
1.28333	-82
1.29167	-83
1.30000	-83
1.30833	-84
1.31667	-84
1.32500	-85
1.33333	-85
1.34167	-85
1.35000	-85
1.35833	-86
1.36667	-86
1.37500	-86
1.38333	-86
1.39167	-86
1.40000	-87
1.40833	-87
1.41667	-87
1.42500	-88
1.43333	-88
1.44167	-89
1.45000	-89
1.45833	-90
1.46667	-90
1.47500	-91
1.48333	-91
1.49167	-91
1.50000	-92
1.50833	-93
1.51667	-93
1.52500	-93
1.53333	-94
1.54167	-94
1.55000	-94
1.55833	-94
1.56667	-94
1.57500	-94
1.58333	-94
1.59167	-94
1.60000	-94
1.60833	-94
1.61667	-95
1.62500	-95
1.63333	-96
1.64167	-97
1.65000	-98
1.65833	-99
1.66667	-99
1.67500	-99
1.68333	-99
1.69167	-99
1.70000	-100
1.70833	-100
1.71667	-100
1.72500	-101
1.73333	-101
1.74167	-102
1.75000	-102
1.75833	-102
1.76667	-102
1.77500	-102
1.78333	-102
1.79167	-103
1.80000	-103
1.80833	-103
1.81667	-104
1.82500	-104
1.83333	-104
1.84167	-104
1.85000	-105
1.85833	-104
1.86667	-104
1.87500	-105
1.88333	-105
1.89167	-105
1.90000	-105
1.90833	-105
1.91667	-105
1.92500	-106
1.93333	-106
1.94167	-106
1.95000	-106
1.95833	-107
1.96667	-107
1.97500	-108
1.98333	-108
1.99167	-108
2.00000	-108
2.00833	-108
2.01667	-108
2.02500	-108
2.03333	-108
2.04167	-108
2.05000	-107
2.05833	-107
2.06667	-107
2.07500	-107
2.08333	-106
2.09167	-106
2.10000	-106
2.10833	-106
2.11667	-106
2.12500	-106
2.13333	-105
2.14167	-105
2.15000	-105
2.15833	-104
2.16667	-104
2.17500	-103
2.18333	-102
2.19167	-102
2.20000	-101
2.20833	-100
2.21667	-99
2.22500	-99
2.23333	-98
2.24167	-97
2.25000	-96
2.25833	-95
2.26667	-93
2.27500	-91
2.28333	-90
2.29167	-88
2.30000	-86
2.30833	-84
2.31667	-82
2.32500	-79
2.33333	-76
2.34167	-74
2.35000	-71
2.35833	-68
2.36667	-65
2.37500	-61
2.38333	-58
2.39167	-54
2.40000	-50
2.40833	-46
2.41667	-41
2.42500	-36
2.43333	-31
2.44167	-26
2.45000	-20
2.45833	-14
2.46667	-7
2.47500	0
2.48333	8
2.49167	16
2.50000	25
2.50833	34
2.51667	44
2.52500	55
2.53333	65
2.54167	77
2.55000	88
2.55833	101
2.56667	114
2.57500	128
2.58333	143
2.59167	159
2.60000	175
2.60833	192
2.61667	211
2.62500	230
2.63333	250
2.64167	271
2.65000	293
2.65833	316
2.66667	341
2.67500	367
2.68333	394
2.69167	422
2.70000	452
2.70833	484
2.71667	517
2.72500	552
2.73333	589
2.74167	629
2.75000	670
2.75833	713
2.76667	759
2.77500	807
2.78333	858
2.79167	911
2.80000	967
2.80833	1025
2.81667	1087
2.82500	1151
2.83333	1220
2.84167	1291
2.85000	1366
2.85833	1445
2.86667	1528
2.87500	1615
2.88333	1706
2.89167	1802
2.90000	1902
2.90833	2007
2.91667	2116
2.92500	2230
2.93333	2349
2.94167	2472
2.95000	2601
2.95833	2736
2.96667	2875
2.97500	3020
2.98333	3169
2.99167	3324
3.00000	3484
3.00833	3649
3.01667	3819
3.02500	3993
3.03333	4172
3.04167	4355
3.05000	4542
3.05833	4733
3.06667	4927
3.07500	5124
3.08333	5324
3.09167	5526
3.10000	5729
3.10833	5933
3.11667	6137
3.12500	6342
3.13333	6545
3.14167	6747
3.15000	6948
3.15833	7145
3.16667	7339
3.17500	7530
3.18333	7715
3.19167	7895
3.20000	8069
3.20833	8235
3.21667	8394
3.22500	8545
3.23333	8687
3.24167	8820
3.25000	8943
3.25833	9055
3.26667	9157
3.27500	9247
3.28333	9325
3.29167	9392
3.30000	9446
3.30833	9488
3.31667	9516
3.32500	9532
3.33333	9535
3.34167	9525
3.35000	9502
3.35833	9467
3.36667	9419
3.37500	9359
3.38333	9287
3.39167	9204
3.40000	9109
3.40833	9003
3.41667	8886
3.42500	8760
3.43333	8624
3.44167	8481
3.45000	8329
3.45833	8169
3.46667	8002
3.47500	7829
3.48333	7649
3.49167	7465
3.50000	7277
3.50833	7085
3.51667	6889
3.52500	6691
3.53333	6491
3.54167	6290
3.55000	6088
3.55833	5886
3.56667	5684
3.57500	5483
3.58333	5283
3.59167	5086
3.60000	4890
3.60833	4697
3.61667	4507
3.62500	4320
3.63333	4136
3.64167	3957
3.65000	3782
3.65833	3611
3.66667	3445
3.67500	3283
3.68333	3126
3.69167	2974
3.70000	2827
3.70833	2684
3.71667	2547
3.72500	2414
3.73333	2287
3.74167	2165
3.75000	2047
3.75833	1935
3.76667	1828
3.77500	1726
3.78333	1629
3.79167	1535
3.80000	1447
3.80833	1362
3.81667	1282
3.82500	1206
3.83333	1134
3.84167	1066
3.85000	1002
3.85833	941
3.86667	883
3.87500	829
3.88333	777
3.89167	729
3.90000	683
3.90833	640
3.91667	600
3.92500	562
3.93333	526
3.94167	492
3.95000	460
3.95833	431
3.96667	403
3.97500	377
3.98333	352
3.99167	329
4.00000	308
4.00833	288
4.01667	269
4.02500	250
4.03333	233
4.04167	217
4.05000	202
4.05833	187
4.06667	174
4.07500	161
4.08333	149
4.09167	137
4.10000	126
4.10833	115
4.11667	105
4.12500	96
4.13333	87
4.14167	78
4.15000	69
4.15833	61
4.16667	54
4.17500	46
4.18333	39
4.19167	31
4.20000	25
4.20833	18
4.21667	12
4.22500	6
4.23333	-0
4.24167	-6
4.25000	-13
4.25833	-18
4.26667	-24
4.27500	-29
4.28333	-34
4.29167	-38
4.30000	-43
4.30833	-48
4.31667	-52
4.32500	-56
4.33333	-61
4.34167	-65
4.35000	-68
4.35833	-72
4.36667	-76
4.37500	-79
4.38333	-82
4.39167	-86
4.40000	-89
4.40833	-92
4.41667	-95
4.42500	-97
4.43333	-99
4.44167	-102
4.45000	-104
4.45833	-106
4.46667	-108
4.47500	-110
4.48333	-111
4.49167	-112
4.50000	-114
4.50833	-115
4.51667	-116
4.52500	-118
4.53333	-118
4.54167	-119
4.55000	-120
4.55833	-120
4.56667	-120
4.57500	-121
4.58333	-121
4.59167	-121
4.60000	-121
4.60833	-122
4.61667	-122
4.62500	-122
4.63333	-121
4.64167	-121
4.65000	-120
4.65833	-119
4.66667	-119
4.67500	-118
4.68333	-117
4.69167	-117
4.70000	-117
4.70833	-117
4.71667	-117
4.72500	-116
4.73333	-116
4.74167	-115
4.75000	-114
4.75833	-113
4.76667	-112
4.77500	-111
4.78333	-111
4.79167	-110
4.80000	-110
4.80833	-109
4.81667	-108
4.82500	-107
4.83333	-106
4.84167	-105
4.85000	-104
4.85833	-103
4.86667	-102
4.87500	-101
4.88333	-101
4.89167	-100
4.90000	-100
4.90833	-99
4.91667	-99
4.92500	-98
4.93333	-98
4.94167	-97
4.95000	-96
4.95833	-96
4.96667	-95
4.97500	-95
4.98333	-95
4.99167	-95
5.00000	-95
5.00833	-95
5.01667	-95
5.02500	-95
5.03333	-95
5.04167	-95
5.05000	-94
5.05833	-94
5.06667	-95
5.07500	-95
5.08333	-95
5.09167	-94
5.10000	-94
5.10833	-95
5.11667	-95
5.12500	-96
5.13333	-96
5.14167	-96
5.15000	-97
5.15833	-98
5.16667	-98
5.17500	-99
5.18333	-99
5.19167	-100
5.20000	-100
5.20833	-100
5.21667	-101
5.22500	-101
5.23333	-102
5.24167	-103
5.25000	-103
5.25833	-104
5.26667	-106
5.27500	-106
5.28333	-107
5.29167	-107
5.30000	-108
5.30833	-109
5.31667	-110
5.32500	-111
5.33333	-112
5.34167	-112
5.35000	-113
5.35833	-113
5.36667	-114
5.37500	-114
5.38333	-115
5.39167	-116
5.40000	-117
5.40833	-117
5.41667	-118
5.42500	-119
5.43333	-120
5.44167	-121
5.45000	-122
5.45833	-123
5.46667	-123
5.47500	-124
5.48333	-124
5.49167	-124
5.50000	-125
5.50833	-126
5.51667	-127
5.52500	-128
5.53333	-129
5.54167	-130
5.55000	-130
5.55833	-131
5.56667	-131
5.57500	-132
5.58333	-133
5.59167	-134
5.60000	-135
5.60833	-136
5.61667	-137
5.62500	-137
5.63333	-138
5.64167	-138
5.65000	-138
5.65833	-139
5.66667	-139
5.67500	-140
5.68333	-140
5.69167	-141
5.70000	-141
5.70833	-141
5.71667	-141
5.72500	-142
5.73333	-142
5.74167	-143
5.75000	-143
5.75833	-144
5.76667	-145
5.77500	-145
5.78333	-145
5.79167	-145
5.80000	-145
5.80833	-145
5.81667	-146
5.82500	-146
5.83333	-146
5.84167	-147
5.85000	-147
5.85833	-147
5.86667	-147
5.87500	-147
5.88333	-147
5.89167	-148
5.90000	-148
5.90833	-149
5.91667	-149
5.92500	-149
5.93333	-149
5.94167	-149
5.95000	-149
5.95833	-149
5.96667	-149
5.97500	-148
5.98333	-148
5.99167	-148
6.00000	-148
6.00833	-148
6.01667	-148
6.02500	-148
6.03333	-148
6.04167	-148
6.05000	-148
6.05833	-148
6.06667	-147
6.07500	-147
6.08333	-147
6.09167	-147
6.10000	-148
6.10833	-147
6.11667	-147
6.12500	-147
6.13333	-148
6.14167	-148
6.15000	-147
6.15833	-147
6.16667	-147
6.17500	-148
6.18333	-148
6.19167	-148
6.20000	-148
6.20833	-148
6.21667	-147
6.22500	-147
6.23333	-147
6.24167	-147
6.25000	-147
6.25833	-147
6.26667	-147
6.27500	-147
6.28333	-147
6.29167	-147
6.30000	-146
6.30833	-146
6.31667	-146
6.32500	-146
6.33333	-147
6.34167	-147
6.35000	-147
6.35833	-147
6.36667	-148
6.37500	-147
6.38333	-147
6.39167	-147
6.40000	-147
6.40833	-147
6.41667	-147
6.42500	-147
6.43333	-147
6.44167	-147
6.45000	-147
6.45833	-147
6.46667	-147
6.47500	-147
6.48333	-147
6.49167	-147
6.50000	-147
6.50833	-146
6.51667	-146
6.52500	-146
6.53333	-146
6.54167	-146
6.55000	-146
6.55833	-146
6.56667	-146
6.57500	-146
6.58333	-146
6.59167	-146
6.60000	-146
6.60833	-146
6.61667	-146
6.62500	-146
6.63333	-146
6.64167	-146
6.65000	-146
6.65833	-145
6.66667	-145
6.67500	-145
6.68333	-146
6.69167	-146
6.70000	-146
6.70833	-146
6.71667	-146
6.72500	-146
6.73333	-146
6.74167	-146
6.75000	-145
6.75833	-145
6.76667	-145
6.77500	-145
6.78333	-145
6.79167	-145
6.80000	-145
6.80833	-146
6.81667	-146
6.82500	-146
6.83333	-146
6.84167	-146
6.85000	-146
6.85833	-146
6.86667	-145
6.87500	-145
6.88333	-145
6.89167	-145
6.90000	-145
6.90833	-144
6.91667	-144
6.92500	-144
6.93333	-143
6.94167	-143
6.95000	-143
6.95833	-143
6.96667	-143
6.97500	-143
6.98333	-143
6.99167	-143
7.00000	-143
7.00833	-143
7.01667	-143
7.02500	-143
7.03333	-143
7.04167	-142
7.05000	-141
7.05833	-140
7.06667	-139
7.07500	-137
7.08333	-135
7.09167	-132
7.10000	-128
7.10833	-124
7.11667	-118
7.12500	-111
7.13333	-103
7.14167	-94
7.15000	-83
7.15833	-70
7.16667	-55
7.17500	-37
7.18333	-18
7.19167	4
7.20000	28
7.20833	55
7.21667	83
7.22500	113
7.23333	145
7.24167	177
7.25000	210
7.25833	243
7.26667	273
7.27500	301
7.28333	323
7.29167	339
7.30000	346
7.30833	343
7.31667	330
7.32500	309
7.33333	284
7.34167	260
7.35000	247
7.35833	257
7.36667	306
7.37500	410
7.38333	590
7.39167	863
7.40000	1250
7.40833	1768
7.41667	2430
7.42500	3246
7.43333	4222
7.44167	5356
7.45000	6637
7.45833	8049
7.46667	9563
7.47500	11143
7.48333	12744
7.49167	14309
7.50000	15778
7.50833	17089
7.51667	18181
7.52500	19001
7.53333	19511
7.54167	19691
7.55000	19537
7.55833	19070
7.56667	18325
7.57500	17350
7.58333	16204
7.59167	14947
7.60000	13635
7.60833	12319
7.61667	11043
7.62500	9838
7.63333	8727
7.64167	7723
7.65000	6830
7.65833	6047
7.66667	5369
7.67500	4786
7.68333	4288
7.69167	3864
7.70000	3502
7.70833	3194
7.71667	2930
7.72500	2702
7.73333	2503
7.74167	2329
7.75000	2175
7.75833	2037
7.76667	1914
7.77500	1802
7.78333	1700
7.79167	1608
7.80000	1522
7.80833	1442
7.81667	1368
7.82500	1298
7.83333	1231
7.84167	1167
7.85000	1105
7.85833	1044
7.86667	985
7.87500	928
7.88333	873
7.89167	820
7.90000	769
7.90833	720
7.91667	674
7.92500	630
7.93333	589
7.94167	551
7.95000	516
7.95833	485
7.96667	458
7.97500	434
7.98333	413
7.99167	394
8.00000	378
8.00833	365
8.01667	352
8.02500	342
8.03333	332
8.04167	323
8.05000	314
8.05833	306
8.06667	297
8.07500	288
8.08333	279
8.09167	269
8.10000	258
8.10833	247
8.11667	237
8.12500	226
8.13333	215
8.14167	204
8.15000	194
8.15833	184
8.16667	174
8.17500	165
8.18333	156
8.19167	148
8.20000	140
8.20833	133
8.21667	127
8.22500	121
8.23333	117
8.24167	112
8.25000	108
8.25833	104
8.26667	101
8.27500	98
8.28333	96
8.29167	94
8.30000	93
8.30833	92
8.31667	91
8.32500	90
8.33333	90
8.34167	89
8.35000	88
8.35833	88
8.36667	87
8.37500	87
8.38333	86
8.39167	85
8.40000	85
8.40833	84
8.41667	83
8.42500	82
8.43333	81
8.44167	80
8.45000	79
8.45833	78
8.46667	76
8.47500	75
8.48333	74
8.49167	73
8.50000	71
8.50833	69
8.51667	68
8.52500	66
8.53333	64
8.54167	63
8.55000	62
8.55833	61
8.56667	60
8.57500	59
8.58333	58
8.59167	58
8.60000	58
8.60833	59
8.61667	60
8.62500	61
8.63333	62
8.64167	64
8.65000	66
8.65833	69
8.66667	73
8.67500	77
8.68333	82
8.69167	87
8.70000	93
8.70833	100
8.71667	107
8.72500	114
8.73333	122
8.74167	130
8.75000	138
8.75833	146
8.76667	153
8.77500	159
8.78333	166
8.79167	172
8.80000	178
8.80833	183
8.81667	189
8.82500	195
8.83333	201
8.84167	208
8.85000	217
8.85833	228
8.86667	241
8.87500	257
8.88333	277
8.89167	301
8.90000	332
8.90833	369
8.91667	413
8.92500	466
8.93333	527
8.94167	598
8.95000	677
8.95833	766
8.96667	864
8.97500	970
8.98333	1084
8.99167	1203
9.00000	1326
9.00833	1450
9.01667	1573
9.02500	1694
9.03333	1809
9.04167	1917
9.05000	2014
9.05833	2098
9.06667	2169
9.07500	2224
9.08333	2263
9.09167	2285
9.10000	2289
9.10833	2276
9.11667	2248
9.12500	2205
9.13333	2148
9.14167	2079
9.15000	2001
9.15833	1914
9.16667	1822
9.17500	1726
9.18333	1627
9.19167	1528
9.20000	1429
9.20833	1332
9.21667	1239
9.22500	1150
9.23333	1065
9.24167	986
9.25000	913
9.25833	845
9.26667	784
9.27500	727
9.28333	677
9.29167	631
9.30000	591
9.30833	555
9.31667	525
9.32500	499
9.33333	477
9.34167	459
9.35000	444
9.35833	432
9.36667	424
9.37500	420
9.38333	420
9.39167	424
9.40000	432
9.40833	446
9.41667	466
9.42500	494
9.43333	530
9.44167	576
9.45000	637
9.45833	713
9.46667	807
9.47500	924
9.48333	1068
9.49167	1243
9.50000	1454
9.50833	1706
9.51667	2005
9.52500	2356
9.53333	2763
9.54167	3231
9.55000	3762
9.55833	4359
9.56667	5021
9.57500	5749
9.58333	6537
9.59167	7383
9.60000	8277
9.60833	9211
9.61667	10174
9.62500	11153
9.63333	12134
9.64167	13103
9.65000	14045
9.65833	14943
9.66667	15785
9.67500	16557
9.68333	17247
9.69167	17845
9.70000	18346
9.70833	18744
9.71667	19037
9.72500	19228
9.73333	19318
9.74167	19315
9.75000	19226
9.75833	19061
9.76667	18831
9.77500	18549
9.78333	18226
9.79167	17876
9.80000	17512
9.80833	17145
9.81667	16786
9.82500	16444
9.83333	16130
9.84167	15849
9.85000	15608
9.85833	15413
9.86667	15267
9.87500	15172
9.88333	15129
9.89167	15139
9.90000	15201
9.90833	15315
9.91667	15478
9.92500	15689
9.93333	15944
9.94167	16241
9.95000	16578
9.95833	16950
9.96667	17354
9.97500	17788
9.98333	18247
9.99167	18729
10.00000	19230
10.00833	19747
10.01667	20276
10.02500	20811
10.03333	21345
10.04167	21872
10.05000	22376
10.05833	22838
10.06667	23234
10.07500	23529
10.08333	23687
10.09167	23669
10.10000	23439
10.10833	22970
10.11667	22251
10.12500	21288
10.13333	20106
10.14167	18743
10.15000	17252
10.15833	15688
10.16667	14108
10.17500	12559
10.18333	11083
10.19167	9709
10.20000	8457
10.20833	7334
10.21667	6345
10.22500	5483
10.23333	4740
10.24167	4105
10.25000	3566
10.25833	3110
10.26667	2726
10.27500	2402
10.28333	2130
10.29167	1900
10.30000	1705
10.30833	1540
10.31667	1399
10.32500	1277
10.33333	1171
10.34167	1079
10.35000	998
10.35833	925
10.36667	860
10.37500	802
10.38333	749
10.39167	700
10.40000	656
10.40833	615
10.41667	577
10.42500	541
10.43333	509
10.44167	479
10.45000	451
10.45833	426
10.46667	403
10.47500	382
10.48333	364
10.49167	347
10.50000	333
10.50833	321
10.51667	311
10.52500	303
10.53333	297
10.54167	292
10.55000	289
10.55833	287
10.56667	285
10.57500	285
10.58333	285
10.59167	285
10.60000	286
10.60833	286
10.61667	285
10.62500	284
10.63333	281
10.64167	278
10.65000	273
10.65833	266
10.66667	259
10.67500	251
10.68333	242
10.69167	231
10.70000	221
10.70833	209
10.71667	197
10.72500	185
10.73333	173
10.74167	161
10.75000	149
10.75833	138
10.76667	127
10.77500	117
10.78333	108
10.79167	100
10.80000	93
10.80833	87
10.81667	81
10.82500	77
10.83333	73
10.84167	70
10.85000	67
10.85833	65
10.86667	64
10.87500	63
10.88333	62
10.89167	62
10.90000	61
10.90833	60
10.91667	59
10.92500	58
10.93333	57
10.94167	55
10.95000	53
10.95833	51
10.96667	49
10.97500	46
10.98333	43
10.99167	39
11.00000	36
11.00833	33
11.01667	30
11.02500	27
11.03333	23
11.04167	20
11.05000	17
11.05833	15
11.06667	13
11.07500	11
11.08333	10
11.09167	8
11.10000	8
11.10833	8
11.11667	8
11.12500	9
11.13333	10
11.14167	12
11.15000	14
11.15833	16
11.16667	19
11.17500	21
11.18333	24
11.19167	28
11.20000	31
11.20833	35
11.21667	39
11.22500	43
11.23333	47
11.24167	51
11.25000	55
11.25833	59
11.26667	63
11.27500	67
11.28333	70
11.29167	73
11.30000	76
11.30833	79
11.31667	82
11.32500	83
11.33333	85
11.34167	85
11.35000	86
11.35833	86
11.36667	85
11.37500	84
11.38333	83
11.39167	82
11.40000	80
11.40833	77
11.41667	75
11.42500	72
11.43333	69
11.44167	67
11.45000	64
11.45833	61
11.46667	59
11.47500	57
11.48333	54
11.49167	52
11.50000	50
11.50833	48
11.51667	47
11.52500	45
11.53333	43
11.54167	42
11.55000	41
11.55833	40
11.56667	39
11.57500	38
11.58333	37
11.59167	36
11.60000	35
11.60833	34
11.61667	34
11.62500	33
11.63333	33
11.64167	33
11.65000	34
11.65833	34
11.66667	35
11.67500	36
11.68333	37
11.69167	38
11.70000	40
11.70833	42
11.71667	44
11.72500	47
11.73333	49
11.74167	52
11.75000	54
11.75833	56
11.76667	57
11.77500	59
11.78333	61
11.79167	62
11.80000	63
11.80833	63
11.81667	62
11.82500	61
11.83333	59
11.84167	57
11.85000	54
11.85833	50
11.86667	46
11.87500	41
11.88333	36
11.89167	31
11.90000	26
11.90833	21
11.91667	15
11.92500	10
11.93333	5
11.94167	0
11.95000	-4
11.95833	-9
11.96667	-13
11.97500	-17
11.98333	-20
11.99167	-23
12.00000	-26
12.00833	-28
12.01667	-30
12.02500	-32
12.03333	-33
12.04167	-34
12.05000	-35
12.05833	-36
12.06667	-36
12.07500	-35
12.08333	-35
12.09167	-35
12.10000	-35
12.10833	-35
12.11667	-35
12.12500	-35
12.13333	-35
12.14167	-34
12.15000	-35
12.15833	-35
12.16667	-34
12.17500	-35
12.18333	-35
12.19167	-35
12.20000	-36
12.20833	-36
12.21667	-37
12.22500	-38
12.23333	-39
12.24167	-40
12.25000	-42
12.25833	-43
12.26667	-44
12.27500	-46
12.28333	-47
12.29167	-48
12.30000	-49
12.30833	-51
12.31667	-53
12.32500	-54
12.33333	-56
12.34167	-58
12.35000	-61
12.35833	-63
12.36667	-65
12.37500	-67
12.38333	-69
12.39167	-71
12.40000	-73
12.40833	-75
12.41667	-76
12.42500	-77
12.43333	-79
12.44167	-80
12.45000	-81
12.45833	-83
12.46667	-84
12.47500	-85
12.48333	-85
12.49167	-86
12.50000	-86
12.50833	-87
12.51667	-88
12.52500	-88
12.53333	-88
12.54167	-88
12.55000	-87
12.55833	-87
12.56667	-86
12.57500	-86
12.58333	-85
12.59167	-84
12.60000	-83
12.60833	-82
12.61667	-81
12.62500	-80
12.63333	-78
12.64167	-77
12.65000	-76
12.65833	-75
12.66667	-74
12.67500	-72
12.68333	-71
12.69167	-70
12.70000	-69
12.70833	-68
12.71667	-67
12.72500	-66
12.73333	-64
12.74167	-64
12.75000	-62
12.75833	-62
12.76667	-61
12.77500	-61
12.78333	-60
12.79167	-60
12.80000	-60
12.80833	-60
12.81667	-60
12.82500	-60
12.83333	-59
12.84167	-59
12.85000	-59
12.85833	-58
12.86667	-58
12.87500	-58
12.88333	-58
12.89167	-58
12.90000	-57
12.90833	-57
12.91667	-56
12.92500	-55
12.93333	-53
12.94167	-52
12.95000	-51
12.95833	-50
12.96667	-48
12.97500	-47
12.98333	-45
12.99167	-44
13.00000	-43
13.00833	-41
13.01667	-39
13.02500	-37
13.03333	-36
13.04167	-34
13.05000	-33
13.05833	-32
13.06667	-31
13.07500	-30
13.08333	-30
13.09167	-29
13.10000	-29
13.10833	-29
13.11667	-29
13.12500	-30
13.13333	-30
13.14167	-31
13.15000	-32
13.15833	-33
13.16667	-33
13.17500	-34
13.18333	-35
13.19167	-37
13.20000	-38
13.20833	-39
13.21667	-39
13.22500	-40
13.23333	-40
13.24167	-40
13.25000	-41
13.25833	-41
13.26667	-42
13.27500	-41
13.28333	-41
13.29167	-41
13.30000	-41
13.30833	-41
13.31667	-40
13.32500	-40
13.33333	-39
13.34167	-38
13.35000	-38
13.35833	-37
13.36667	-36
13.37500	-35
13.38333	-33
13.39167	-32
13.40000	-31
13.40833	-30
13.41667	-29
13.42500	-27
13.43333	-26
13.44167	-24
13.45000	-23
13.45833	-21
13.46667	-19
13.47500	-16
13.48333	-13
13.49167	-11
13.50000	-7
13.50833	-3
13.51667	1
13.52500	5
13.53333	10
13.54167	16
13.55000	23
13.55833	30
13.56667	39
13.57500	48
13.58333	58
13.59167	70
13.60000	83
13.60833	96
13.61667	111
13.62500	127
13.63333	144
13.64167	163
13.65000	181
13.65833	201
13.66667	221
13.67500	241
13.68333	261
13.69167	281
13.70000	301
13.70833	319
13.71667	336
13.72500	353
13.73333	368
13.74167	381
13.75000	393
13.75833	402
13.76667	410
13.77500	415
13.78333	419
13.79167	421
13.80000	422
13.80833	421
13.81667	420
13.82500	417
13.83333	414
13.84167	411
13.85000	407
13.85833	404
13.86667	400
13.87500	397
13.88333	394
13.89167	392
13.90000	390
13.90833	388
13.91667	387
13.92500	385
13.93333	384
13.94167	383
13.95000	381
13.95833	379
13.96667	377
13.97500	375
13.98333	371
13.99167	367
14.00000	362
14.00833	356
14.01667	350
14.02500	343
14.03333	335
14.04167	326
14.05000	317
14.05833	307
14.06667	297
14.07500	287
14.08333	276
14.09167	265
14.10000	255
14.10833	245
14.11667	235
14.12500	225
14.13333	216
14.14167	208
14.15000	200
14.15833	192
14.16667	185
14.17500	178
14.18333	172
14.19167	166
14.20000	161
14.20833	156
14.21667	152
14.22500	148
14.23333	145
14.24167	142
14.25000	139
14.25833	137
14.26667	136
14.27500	134
14.28333	133
14.29167	133
14.30000	132
14.30833	132
14.31667	132
14.32500	132
14.33333	133
14.34167	133
14.35000	134
14.35833	135
14.36667	136
14.37500	138
14.38333	139
14.39167	140
14.40000	142
14.40833	143
14.41667	144
14.42500	145
14.43333	146
14.44167	147
14.45000	148
14.45833	149
14.46667	150
14.47500	151
14.48333	152
14.49167	153
14.50000	154
14.50833	155
14.51667	155
14.52500	156
14.53333	157
14.54167	158
14.55000	158
14.55833	158
14.56667	158
14.57500	158
14.58333	158
14.59167	157
14.60000	157
14.60833	157
14.61667	156
14.62500	156
14.63333	156
14.64167	155
14.65000	155
14.65833	154
14.66667	153
14.67500	152
14.68333	151
14.69167	150
14.70000	149
14.70833	148
14.71667	147
14.72500	146
14.73333	146
14.74167	145
14.75000	145
14.75833	145
14.76667	144
14.77500	143
14.78333	142
14.79167	141
14.80000	141
14.80833	140
14.81667	139
14.82500	139
14.83333	138
14.84167	138
14.85000	138
14.85833	137
14.86667	137
14.87500	137
14.88333	137
14.89167	137
14.90000	137
14.90833	137
14.91667	137
14.92500	137
14.93333	138
14.94167	138
14.95000	138
14.95833	139
14.96667	139
14.97500	140
14.98333	141
14.99167	142
15.00000	143
15.00833	145
15.01667	147
15.02500	150
15.03333	153
15.04167	157
15.05000	161
15.05833	166
15.06667	171
15.07500	178
15.08333	185
15.09167	193
15.10000	201
15.10833	211
15.11667	221
15.12500	233
15.13333	246
15.14167	259
15.15000	274
15.15833	289
15.16667	305
15.17500	321
15.18333	337
15.19167	354
15.20000	371
15.20833	388
15.21667	404
15.22500	419
15.23333	433
15.24167	447
15.25000	459
15.25833	469
15.26667	477
15.27500	483
15.28333	487
15.29167	490
15.30000	490
15.30833	488
15.31667	483
15.32500	477
15.33333	469
15.34167	459
15.35000	447
15.35833	433
15.36667	418
15.37500	402
15.38333	385
15.39167	368
15.40000	351
15.40833	333
15.41667	315
15.42500	297
15.43333	279
15.44167	261
15.45000	244
15.45833	227
15.46667	211
15.47500	196
15.48333	182
15.49167	168
15.50000	154
15.50833	142
15.51667	131
15.52500	120
15.53333	110
15.54167	100
15.55000	91
15.55833	83
15.56667	75
15.57500	69
15.58333	63
15.59167	58
15.60000	52
15.60833	47
15.61667	43
15.62500	39
15.63333	35
15.64167	31
15.65000	28
15.65833	26
15.66667	23
15.67500	21
15.68333	19
15.69167	18
15.70000	16
15.70833	15
15.71667	14
15.72500	13
15.73333	12
15.74167	11
15.75000	10
15.75833	10
15.76667	10
15.77500	10
15.78333	10
15.79167	10
15.80000	10
15.80833	10
15.81667	11
15.82500	11
15.83333	12
15.84167	13
15.85000	13
15.85833	14
15.86667	15
15.87500	17
15.88333	18
15.89167	19
15.90000	21
15.90833	23
15.91667	26
15.92500	29
15.93333	33
15.94167	38
15.95000	42
15.95833	48
15.96667	53
15.97500	60
15.98333	67
15.99167	75
16.00000	83
16.00833	92
16.01667	102
16.02500	113
16.03333	123
16.04167	135
16.05000	146
16.05833	158
16.06667	169
16.07500	181
16.08333	192
16.09167	204
16.10000	214
16.10833	224
16.11667	233
16.12500	241
16.13333	248
16.14167	254
16.15000	259
16.15833	262
16.16667	264
16.17500	266
16.18333	266
16.19167	265
16.20000	263
16.20833	260
16.21667	256
16.22500	251
16.23333	246
16.24167	241
16.25000	235
16.25833	229
16.26667	223
16.27500	217
16.28333	212
16.29167	207
16.30000	202
16.30833	198
16.31667	195
16.32500	193
16.33333	191
16.34167	191
16.35000	192
16.35833	194
16.36667	198
16.37500	202
16.38333	208
16.39167	215
16.40000	224
16.40833	233
16.41667	245
16.42500	257
16.43333	272
16.44167	287
16.45000	305
16.45833	324
16.46667	345
16.47500	367
16.48333	391
16.49167	416
16.50000	443
16.50833	471
16.51667	500
16.52500	531
16.53333	562
16.54167	594
16.55000	626
16.55833	659
16.56667	692
16.57500	724
16.58333	755
16.59167	785
16.60000	813
16.60833	840
16.61667	865
16.62500	887
16.63333	907
16.64167	923
16.65000	936
16.65833	945
16.66667	951
16.67500	954
16.68333	952
16.69167	948
16.70000	940
16.70833	928
16.71667	914
16.72500	895
16.73333	875
16.74167	851
16.75000	826
16.75833	799
16.76667	770
16.77500	741
16.78333	710
16.79167	678
16.80000	646
16.80833	615
16.81667	583
16.82500	552
16.83333	522
16.84167	492
16.85000	464
16.85833	436
16.86667	410
16.87500	384
16.88333	360
16.89167	337
16.90000	315
16.90833	295
16.91667	276
16.92500	258
16.93333	242
16.94167	226
16.95000	212
16.95833	198
16.96667	185
16.97500	173
16.98333	162
16.99167	152
17.00000	143
17.00833	134
17.01667	126
17.02500	118
17.03333	111
17.04167	104
17.05000	97
17.05833	91
17.06667	85
17.07500	79
17.08333	74
17.09167	69
17.10000	64
17.10833	59
17.11667	54
17.12500	50
17.13333	46
17.14167	43
17.15000	40
17.15833	36
17.16667	34
17.17500	31
17.18333	28
17.19167	25
17.20000	23
17.20833	20
17.21667	18
17.22500	16
17.23333	14
17.24167	12
17.25000	10
17.25833	8
17.26667	6
17.27500	4
17.28333	3
17.29167	2
17.30000	1
17.30833	0
17.31667	-1
17.32500	-2
17.33333	-3
17.34167	-4
17.35000	-5
17.35833	-6
17.36667	-6
17.37500	-7
17.38333	-7
17.39167	-7
17.40000	-7
17.40833	-7
17.41667	-8
17.42500	-8
17.43333	-8
17.44167	-8
17.45000	-7
17.45833	-7
17.46667	-7
17.47500	-7
17.48333	-6
17.49167	-5
17.50000	-5
17.50833	-4
17.51667	-3
17.52500	-2
17.53333	-0
17.54167	1
17.55000	3
17.55833	5
17.56667	7
17.57500	9
17.58333	12
17.59167	15
17.60000	17
17.60833	21
17.61667	24
17.62500	28
17.63333	32
17.64167	37
17.65000	42
17.65833	48
17.66667	54
17.67500	62
17.68333	70
17.69167	79
17.70000	89
17.70833	99
17.71667	111
17.72500	123
17.73333	136
17.74167	152
17.75000	168
17.75833	187
17.76667	206
17.77500	228
17.78333	252
17.79167	279
17.80000	308
17.80833	340
17.81667	376
17.82500	415
17.83333	458
17.84167	506
17.85000	559
17.85833	616
17.86667	680
17.87500	750
17.88333	827
17.89167	911
17.90000	1002
17.90833	1101
17.91667	1208
17.92500	1324
17.93333	1449
17.94167	1582
17.95000	1723
17.95833	1873
17.96667	2030
17.97500	2196
17.98333	2369
17.99167	2548
18.00000	2732
18.00833	2921
18.01667	3112
18.02500	3305
18.03333	3497
18.04167	3687
18.05000	3873
18.05833	4054
18.06667	4227
18.07500	4390
18.08333	4542
18.09167	4681
18.10000	4805
18.10833	4914
18.11667	5005
18.12500	5078
18.13333	5131
18.14167	5165
18.15000	5179
18.15833	5173
18.16667	5148
18.17500	5104
18.18333	5041
18.19167	4962
18.20000	4866
18.20833	4755
18.21667	4631
18.22500	4494
18.23333	4347
18.24167	4192
18.25000	4030
18.25833	3863
18.26667	3692
18.27500	3519
18.28333	3344
18.29167	3171
18.30000	2999
18.30833	2831
18.31667	2666
18.32500	2505
18.33333	2350
18.34167	2201
18.35000	2058
18.35833	1921
18.36667	1792
18.37500	1670
18.38333	1555
18.39167	1446
18.40000	1345
18.40833	1250
18.41667	1161
18.42500	1079
18.43333	1003
18.44167	932
18.45000	867
18.45833	807
18.46667	751
18.47500	700
18.48333	653
18.49167	610
18.50000	571
18.50833	534
18.51667	501
18.52500	470
18.53333	442
18.54167	417
18.55000	394
18.55833	373
18.56667	353
18.57500	336
18.58333	320
18.59167	306
18.60000	293
18.60833	282
18.61667	272
18.62500	263
18.63333	256
18.64167	249
18.65000	244
18.65833	241
18.66667	238
18.67500	235
18.68333	234
18.69167	233
18.70000	234
18.70833	236
18.71667	238
18.72500	242
18.73333	246
18.74167	252
18.75000	258
18.75833	265
18.76667	272
18.77500	280
18.78333	288
18.79167	297
18.80000	306
18.80833	315
18.81667	324
18.82500	333
18.83333	343
18.84167	353
18.85000	362
18.85833	371
18.86667	380
18.87500	388
18.88333	395
18.89167	401
18.90000	406
18.90833	411
18.91667	415
18.92500	419
18.93333	421
18.94167	422
18.95000	422
18.95833	422
18.96667	420
18.97500	418
18.98333	414
18.99167	410
19.00000	405
19.00833	399
19.01667	392
19.02500	385
19.03333	377
19.04167	368
19.05000	360
19.05833	351
19.06667	341
19.07500	332
19.08333	322
19.09167	312
19.10000	302
19.10833	292
19.11667	282
19.12500	272
19.13333	263
19.14167	254
19.15000	246
19.15833	238
19.16667	231
19.17500	223
19.18333	216
19.19167	209
19.20000	203
19.20833	197
19.21667	192
19.22500	188
19.23333	184
19.24167	180
19.25000	176
19.25833	173
19.26667	170
19.27500	167
19.28333	165
19.29167	162
19.30000	161
19.30833	159
19.31667	158
19.32500	157
19.33333	156
19.34167	156
19.35000	155
19.35833	155
19.36667	154
19.37500	154
19.38333	154
19.39167	155
19.40000	155
19.40833	156
19.41667	157
19.42500	158
19.43333	158
19.44167	159
19.45000	160
19.45833	161
19.46667	162
19.47500	163
19.48333	164
19.49167	165
19.50000	166
19.50833	167
19.51667	168
19.52500	169
19.53333	170
19.54167	171
19.55000	172
19.55833	173
19.56667	174
19.57500	175
19.58333	175
19.59167	176
19.60000	176
19.60833	177
19.61667	177
19.62500	178
19.63333	178
19.64167	178
19.65000	179
19.65833	179
19.66667	180
19.67500	180
19.68333	181
19.69167	182
19.70000	182
19.70833	183
19.71667	183
19.72500	184
19.73333	184
19.74167	185
19.75000	185
19.75833	186
19.76667	186
19.77500	187
19.78333	187
19.79167	187
19.80000	187
19.80833	187
19.81667	188
19.82500	189
19.83333	189
19.84167	189
19.85000	189
19.85833	190
19.86667	189
19.87500	189
19.88333	190
19.89167	190
19.90000	191
19.90833	192
19.91667	192
19.92500	193
19.93333	193
19.94167	193
19.95000	193
19.95833	194
19.96667	194
19.97500	194
19.98333	195
19.99167	196
20.00000	197
20.00833	197
20.01667	198
20.02500	199
20.03333	199
20.04167	200
20.05000	200
20.05833	201
20.06667	202
20.07500	202
20.08333	203
20.09167	203
20.10000	204
20.10833	205
20.11667	206
20.12500	207
20.13333	209
20.14167	210
20.15000	211
20.15833	212
20.16667	213
20.17500	213
20.18333	215
20.19167	216
20.20000	217
20.20833	218
20.21667	220
20.22500	221
20.23333	222
20.24167	224
20.25000	225
20.25833	227
20.26667	229
20.27500	230
20.28333	232
20.29167	234
20.30000	235
20.30833	237
20.31667	239
20.32500	241
20.33333	244
20.34167	246
20.35000	248
20.35833	250
20.36667	252
20.37500	255
20.38333	257
20.39167	260
20.40000	264
20.40833	267
20.41667	271
20.42500	275
20.43333	279
20.44167	282
20.45000	287
20.45833	291
20.46667	295
20.47500	299
20.48333	304
20.49167	309
20.50000	315
20.50833	321
20.51667	327
20.52500	334
20.53333	341
20.54167	349
20.55000	358
20.55833	366
20.56667	376
20.57500	386
20.58333	397
20.59167	409
20.60000	422
20.60833	435
20.61667	450
20.62500	465
20.63333	482
20.64167	500
20.65000	519
20.65833	540
20.66667	561
20.67500	584
20.68333	608
20.69167	633
20.70000	660
20.70833	688
20.71667	717
20.72500	747
20.73333	779
20.74167	812
20.75000	846
20.75833	881
20.76667	917
20.77500	954
20.78333	992
20.79167	1030
20.80000	1068
20.80833	1107
20.81667	1145
20.82500	1184
20.83333	1223
20.84167	1262
20.85000	1300
20.85833	1338
20.86667	1375
20.87500	1411
20.88333	1447
20.89167	1482
20.90000	1517
20.90833	1550
20.91667	1583
20.92500	1614
20.93333	1645
20.94167	1674
20.95000	1703
20.95833	1731
20.96667	1759
20.97500	1786
20.98333	1813
20.99167	1840
21.00000	1868
21.00833	1896
21.01667	1925
21.02500	1954
21.03333	1985
21.04167	2017
21.05000	2051
21.05833	2087
21.06667	2125
21.07500	2166
21.08333	2211
21.09167	2260
21.10000	2313
21.10833	2370
21.11667	2432
21.12500	2500
21.13333	2575
21.14167	2656
21.15000	2745
21.15833	2841
21.16667	2947
21.17500	3061
21.18333	3187
21.19167	3323
21.20000	3471
21.20833	3630
21.21667	3802
21.22500	3986
21.23333	4185
21.24167	4397
21.25000	4624
21.25833	4865
21.26667	5121
21.27500	5392
21.28333	5677
21.29167	5976
21.30000	6289
21.30833	6615
21.31667	6953
21.32500	7302
21.33333	7660
21.34167	8026
21.35000	8400
21.35833	8778
21.36667	9160
21.37500	9542
21.38333	9924
21.39167	10302
21.40000	10675
21.40833	11040
21.41667	11394
21.42500	11735
21.43333	12062
21.44167	12371
21.45000	12660
21.45833	12928
21.46667	13172
21.47500	13390
21.48333	13582
21.49167	13745
21.50000	13879
21.50833	13983
21.51667	14056
21.52500	14098
21.53333	14108
21.54167	14088
21.55000	14036
21.55833	13954
21.56667	13842
21.57500	13702
21.58333	13535
21.59167	13342
21.60000	13125
21.60833	12886
21.61667	12626
21.62500	12347
21.63333	12052
21.64167	11742
21.65000	11419
21.65833	11085
21.66667	10743
21.67500	10393
21.68333	10039
21.69167	9681
21.70000	9323
21.70833	8964
21.71667	8608
21.72500	8255
21.73333	7906
21.74167	7563
21.75000	7226
21.75833	6898
21.76667	6577
21.77500	6265
21.78333	5963
21.79167	5671
21.80000	5390
21.80833	5119
21.81667	4860
21.82500	4611
21.83333	4373
21.84167	4146
21.85000	3929
21.85833	3723
21.86667	3527
21.87500	3341
21.88333	3165
21.89167	2999
21.90000	2841
21.90833	2692
21.91667	2552
21.92500	2419
21.93333	2295
21.94167	2177
21.95000	2067
21.95833	1963
21.96667	1865
21.97500	1772
21.98333	1686
21.99167	1604
22.00000	1527
22.00833	1455
22.01667	1388
22.02500	1325
22.03333	1266
22.04167	1211
22.05000	1159
22.05833	1111
22.06667	1066
22.07500	1023
22.08333	984
22.09167	947
22.10000	913
22.10833	881
22.11667	852
22.12500	825
22.13333	799
22.14167	776
22.15000	755
22.15833	735
22.16667	717
22.17500	700
22.18333	685
22.19167	671
22.20000	659
22.20833	647
22.21667	637
22.22500	628
22.23333	619
22.24167	612
22.25000	605
22.25833	599
22.26667	594
22.27500	589
22.28333	585
22.29167	582
22.30000	579
22.30833	576
22.31667	574
22.32500	572
22.33333	570
22.34167	568
22.35000	566
22.35833	565
22.36667	564
22.37500	562
22.38333	561
22.39167	559
22.40000	558
22.40833	556
22.41667	554
22.42500	553
22.43333	551
22.44167	548
22.45000	546
22.45833	543
22.46667	540
22.47500	537
22.48333	534
22.49167	530
22.50000	526
22.50833	522
22.51667	518
22.52500	513
22.53333	508
22.54167	502
22.55000	496
22.55833	490
22.56667	484
22.57500	478
22.58333	472
22.59167	466
22.60000	459
22.60833	452
22.61667	445
22.62500	438
22.63333	431
22.64167	424
22.65000	417
22.65833	410
22.66667	402
22.67500	395
22.68333	388
22.69167	382
22.70000	375
22.70833	369
22.71667	363
22.72500	357
22.73333	352
22.74167	346
22.75000	341
22.75833	336
22.76667	332
22.77500	328
22.78333	324
22.79167	321
22.80000	318
22.80833	316
22.81667	313
22.82500	311
22.83333	310
22.84167	308
22.85000	307
22.85833	307
22.86667	306
22.87500	306
22.88333	306
22.89167	307
22.90000	307
22.90833	308
22.91667	310
22.92500	311
22.93333	312
22.94167	314
22.95000	315
22.95833	318
22.96667	320
22.97500	322
22.98333	325
22.99167	327
23.00000	330
23.00833	332
23.01667	335
23.02500	338
23.03333	341
23.04167	344
23.05000	346
23.05833	349
23.06667	352
23.07500	355
23.08333	357
23.09167	360
23.10000	362
23.10833	364
23.11667	366
23.12500	368
23.13333	370
23.14167	372
23.15000	374
23.15833	375
23.16667	376
23.17500	378
23.18333	379
23.19167	381
23.20000	382
23.20833	382
23.21667	383
23.22500	384
23.23333	384
23.24167	384
23.25000	384
23.25833	384
23.26667	384
23.27500	384
23.28333	384
23.29167	384
23.30000	384
23.30833	383
23.31667	382
23.32500	381
23.33333	381
23.34167	380
23.35000	379
23.35833	378
23.36667	378
23.37500	377
23.38333	377
23.39167	376
23.40000	375
23.40833	375
23.41667	374
23.42500	374
23.43333	373
23.44167	373
23.45000	373
23.45833	373
23.46667	373
23.47500	373
23.48333	373
23.49167	373
23.50000	372
23.50833	372
23.51667	371
23.52500	371
23.53333	370
23.54167	370
23.55000	370
23.55833	369
23.56667	369
23.57500	369
23.58333	369
23.59167	368
23.60000	368
23.60833	368
23.61667	367
23.62500	367
23.63333	367
23.64167	367
23.65000	366
23.65833	366
23.66667	365
23.67500	365
23.68333	364
23.69167	364
23.70000	363
23.70833	363
23.71667	363
23.72500	363
23.73333	364
23.74167	364
23.75000	364
23.75833	365
23.76667	365
23.77500	365
23.78333	365
23.79167	365
23.80000	365
23.80833	365
23.81667	365
23.82500	365
23.83333	365
23.84167	365
23.85000	365
23.85833	365
23.86667	365
23.87500	365
23.88333	365
23.89167	365
23.90000	365
23.90833	365
23.91667	365
23.92500	366
23.93333	366
23.94167	366
23.95000	365
23.95833	365
23.96667	365
23.97500	366
23.98333	365
23.99167	365
24.00000	365
24.00833	364
24.01667	364
24.02500	364
24.03333	364
24.04167	364
24.05000	364
24.05833	364
24.06667	364
24.07500	364
24.08333	364
24.09167	364
24.10000	364
24.10833	364
24.11667	364
24.12500	363
24.13333	363
24.14167	362
24.15000	361
24.15833	360
24.16667	359
24.17500	357
24.18333	355
24.19167	354
24.20000	353
24.20833	351
24.21667	349
24.22500	347
24.23333	344
24.24167	342
24.25000	340
24.25833	338
24.26667	336
24.27500	334
24.28333	332
24.29167	330
24.30000	328
24.30833	326
24.31667	324
24.32500	322
24.33333	321
24.34167	319
24.35000	317
24.35833	316
24.36667	314
24.37500	312
24.38333	310
24.39167	308
24.40000	306
24.40833	304
24.41667	302
24.42500	300
24.43333	298
24.44167	296
24.45000	295
24.45833	293
24.46667	291
24.47500	289
24.48333	287
24.49167	285
24.50000	284
24.50833	284
24.51667	283
24.52500	282
24.53333	281
24.54167	280
24.55000	279
24.55833	279
24.56667	278
24.57500	278
24.58333	278
24.59167	278
24.60000	278
24.60833	278
24.61667	278
24.62500	278
24.63333	278
24.64167	278
24.65000	278
24.65833	278
24.66667	279
24.67500	279
24.68333	279
24.69167	279
24.70000	279
24.70833	279
24.71667	279
24.72500	278
24.73333	278
24.74167	278
24.75000	278
24.75833	277
24.76667	277
24.77500	277
24.78333	277
24.79167	277
24.80000	277
24.80833	277
24.81667	278
24.82500	278
24.83333	279
24.84167	279
24.85000	280
24.85833	280
24.86667	280
24.87500	280
24.88333	280
24.89167	280
24.90000	281
24.90833	281
24.91667	281
24.92500	280
24.93333	280
24.94167	280
24.95000	280
24.95833	279
24.96667	279
24.97500	279
24.98333	279
24.99167	278
25.00000	278
25.00833	277
25.01667	277
25.02500	276
25.03333	276
25.04167	275
25.05000	275
25.05833	275
25.06667	274
25.07500	274
25.08333	274
25.09167	273
25.10000	273
25.10833	272
25.11667	272
25.12500	272
25.13333	271
25.14167	271
25.15000	270
25.15833	270
25.16667	270
25.17500	270
25.18333	270
25.19167	270
25.20000	270
25.20833	270
25.21667	271
25.22500	271
25.23333	271
25.24167	271
25.25000	271
25.25833	271
25.26667	271
25.27500	271
25.28333	271
25.29167	270
25.30000	270
25.30833	269
25.31667	268
25.32500	267
25.33333	267
25.34167	267
25.35000	267
25.35833	267
25.36667	267
25.37500	267
25.38333	266
25.39167	266
25.40000	266
25.40833	266
25.41667	266
25.42500	267
25.43333	267
25.44167	268
25.45000	268
25.45833	269
25.46667	269
25.47500	270
25.48333	270
25.49167	270
25.50000	271
25.50833	271
25.51667	272
25.52500	272
25.53333	272
25.54167	272
25.55000	272
25.55833	272
25.56667	273
25.57500	273
25.58333	273
25.59167	273
25.60000	273
25.60833	273
25.61667	273
25.62500	273
25.63333	273
25.64167	273
25.65000	273
25.65833	274
25.66667	274
25.67500	275
25.68333	275
25.69167	276
25.70000	277
25.70833	277
25.71667	278
25.72500	278
25.73333	279
25.74167	280
25.75000	281
25.75833	281
25.76667	282
25.77500	283
25.78333	283
25.79167	284
25.80000	284
25.80833	285
25.81667	285
25.82500	285
25.83333	285
25.84167	286
25.85000	286
25.85833	287
25.86667	287
25.87500	288
25.88333	289
25.89167	290
25.90000	291
25.90833	292
25.91667	294
25.92500	296
25.93333	297
25.94167	299
25.95000	301
25.95833	303
25.96667	305
25.97500	308
25.98333	311
25.99167	314
26.00000	317
26.00833	320
26.01667	325
26.02500	329
26.03333	333
26.04167	337
26.05000	342
26.05833	347
26.06667	352
26.07500	358
26.08333	364
26.09167	370
26.10000	377
26.10833	384
26.11667	391
26.12500	399
26.13333	408
26.14167	416
26.15000	426
26.15833	437
26.16667	448
26.17500	460
26.18333	472
26.19167	485
26.20000	499
26.20833	514
26.21667	529
26.22500	546
26.23333	563
26.24167	581
26.25000	600
26.25833	620
26.26667	640
26.27500	661
26.28333	683
26.29167	706
26.30000	729
26.30833	753
26.31667	777
26.32500	802
26.33333	827
26.34167	852
26.35000	877
26.35833	903
26.36667	928
26.37500	954
26.38333	979
26.39167	1004
26.40000	1029
26.40833	1052
26.41667	1076
26.42500	1098
26.43333	1120
26.44167	1141
26.45000	1162
26.45833	1181
26.46667	1198
26.47500	1215
26.48333	1229
26.49167	1242
26.50000	1254
26.50833	1264
26.51667	1272
26.52500	1278
26.53333	1282
26.54167	1284
26.55000	1284
26.55833	1281
26.56667	1278
26.57500	1272
26.58333	1264
26.59167	1254
26.60000	1243
26.60833	1229
26.61667	1214
26.62500	1197
26.63333	1178
26.64167	1158
26.65000	1137
26.65833	1115
26.66667	1092
26.67500	1069
26.68333	1044
26.69167	1019
26.70000	993
26.70833	967
26.71667	940
26.72500	912
26.73333	886
26.74167	859
26.75000	832
26.75833	805
26.76667	779
26.77500	753
26.78333	727
26.79167	702
26.80000	677
26.80833	654
26.81667	630
26.82500	607
26.83333	585
26.84167	564
26.85000	543
26.85833	522
26.86667	503
26.87500	484
26.88333	466
26.89167	449
26.90000	432
26.90833	416
26.91667	401
26.92500	386
26.93333	372
26.94167	359
26.95000	346
26.95833	335
26.96667	323
26.97500	313
26.98333	303
26.99167	293
27.00000	284
27.00833	276
27.01667	268
27.02500	262
27.03333	255
27.04167	249
27.05000	243
27.05833	237
27.06667	232
27.07500	227
27.08333	222
27.09167	217
27.10000	212
27.10833	208
27.11667	204
27.12500	200
27.13333	196
27.14167	192
27.15000	188
27.15833	184
27.16667	181
27.17500	177
27.18333	173
27.19167	170
27.20000	167
27.20833	164
27.21667	161
27.22500	159
27.23333	156
27.24167	154
27.25000	152
27.25833	150
27.26667	149
27.27500	147
27.28333	145
27.29167	144
27.30000	142
27.30833	140
27.31667	139
27.32500	138
27.33333	137
27.34167	135
27.35000	134
27.35833	133
27.36667	132
27.37500	131
27.38333	130
27.39167	129
27.40000	128
27.40833	126
27.41667	125
27.42500	124
27.43333	122
27.44167	121
27.45000	119
27.45833	118
27.46667	117
27.47500	116
27.48333	115
27.49167	113
27.50000	112
27.50833	111
27.51667	110
27.52500	109
27.53333	108
27.54167	107
27.55000	106
27.55833	105
27.56667	104
27.57500	104
27.58333	103
27.59167	103
27.60000	102
27.60833	101
27.61667	101
27.62500	100
27.63333	100
27.64167	99
27.65000	98
27.65833	98
27.66667	97
27.67500	97
27.68333	96
27.69167	95
27.70000	95
27.70833	94
27.71667	92
27.72500	91
27.73333	90
27.74167	89
27.75000	88
27.75833	87
27.76667	86
27.77500	85
27.78333	84
27.79167	83
27.80000	82
27.80833	82
27.81667	81
27.82500	80
27.83333	79
27.84167	79
27.85000	78
27.85833	78
27.86667	78
27.87500	78
27.88333	77
27.89167	77
27.90000	76
27.90833	76
27.91667	75
27.92500	75
27.93333	74
27.94167	74
27.95000	74
27.95833	73
27.96667	72
27.97500	71
27.98333	69
27.99167	68
28.00000	67

