R.Time (min)	Intensity
0.00000	-46
0.00833	-46
0.01667	-28
0.02500	-0
0.03333	-1
0.04167	-1
0.05000	-2
0.05833	-3
0.06667	-4
0.07500	-4
0.08333	-4
0.09167	-5
0.10000	-5
0.10833	-4
0.11667	-5
0.12500	-5
0.13333	-5
0.14167	-6
0.15000	-6
0.15833	-7
0.16667	-7
0.17500	-8
0.18333	-8
0.19167	-9
0.20000	-9
0.20833	-10
0.21667	-10
0.22500	-11
0.23333	-12
0.24167	-13
0.25000	-13
0.25833	-14
0.26667	-14
0.27500	-15
0.28333	-15
0.29167	-15
0.30000	-16
0.30833	-17
0.31667	-17
0.32500	-18
0.33333	-18
0.34167	-19
0.35000	-20
0.35833	-20
0.36667	-21
0.37500	-21
0.38333	-22
0.39167	-23
0.40000	-24
0.40833	-24
0.41667	-25
0.42500	-25
0.43333	-26
0.44167	-26
0.45000	-26
0.45833	-26
0.46667	-27
0.47500	-27
0.48333	-28
0.49167	-29
0.50000	-30
0.50833	-30
0.51667	-31
0.52500	-31
0.53333	-32
0.54167	-33
0.55000	-34
0.55833	-35
0.56667	-35
0.57500	-36
0.58333	-36
0.59167	-37
0.60000	-38
0.60833	-38
0.61667	-38
0.62500	-39
0.63333	-39
0.64167	-39
0.65000	-39
0.65833	-40
0.66667	-40
0.67500	-40
0.68333	-40
0.69167	-41
0.70000	-42
0.70833	-42
0.71667	-43
0.72500	-44
0.73333	-44
0.74167	-45
0.75000	-44
0.75833	-45
0.76667	-45
0.77500	-45
0.78333	-46
0.79167	-46
0.80000	-46
0.80833	-46
0.81667	-46
0.82500	-47
0.83333	-47
0.84167	-47
0.85000	-48
0.85833	-49
0.86667	-50
0.87500	-50
0.88333	-50
0.89167	-51
0.90000	-51
0.90833	-52
0.91667	-52
0.92500	-53
0.93333	-53
0.94167	-53
0.95000	-53
0.95833	-54
0.96667	-54
0.97500	-54
0.98333	-55
0.99167	-55
1.00000	-56
1.00833	-57
1.01667	-57
1.02500	-58
1.03333	-58
1.04167	-59
1.05000	-59
1.05833	-59
1.06667	-60
1.07500	-60
1.08333	-61
1.09167	-61
1.10000	-61
1.10833	-61
1.11667	-61
1.12500	-62
1.13333	-62
1.14167	-62
1.15000	-63
1.15833	-64
1.16667	-64
1.17500	-65
1.18333	-65
1.19167	-66
1.20000	-66
1.20833	-67
1.21667	-67
1.22500	-68
1.23333	-68
1.24167	-68
1.25000	-68
1.25833	-68
1.26667	-68
1.27500	-69
1.28333	-70
1.29167	-70
1.30000	-71
1.30833	-71
1.31667	-71
1.32500	-71
1.33333	-72
1.34167	-72
1.35000	-72
1.35833	-73
1.36667	-73
1.37500	-73
1.38333	-74
1.39167	-74
1.40000	-75
1.40833	-75
1.41667	-75
1.42500	-76
1.43333	-76
1.44167	-76
1.45000	-77
1.45833	-77
1.46667	-77
1.47500	-78
1.48333	-78
1.49167	-79
1.50000	-79
1.50833	-79
1.51667	-79
1.52500	-79
1.53333	-79
1.54167	-79
1.55000	-79
1.55833	-79
1.56667	-79
1.57500	-79
1.58333	-79
1.59167	-80
1.60000	-80
1.60833	-80
1.61667	-80
1.62500	-80
1.63333	-80
1.64167	-81
1.65000	-81
1.65833	-82
1.66667	-82
1.67500	-83
1.68333	-83
1.69167	-84
1.70000	-84
1.70833	-84
1.71667	-84
1.72500	-84
1.73333	-85
1.74167	-85
1.75000	-85
1.75833	-85
1.76667	-86
1.77500	-86
1.78333	-86
1.79167	-87
1.80000	-87
1.80833	-87
1.81667	-87
1.82500	-87
1.83333	-86
1.84167	-86
1.85000	-86
1.85833	-87
1.86667	-87
1.87500	-88
1.88333	-88
1.89167	-89
1.90000	-89
1.90833	-89
1.91667	-89
1.92500	-90
1.93333	-90
1.94167	-90
1.95000	-91
1.95833	-91
1.96667	-91
1.97500	-91
1.98333	-91
1.99167	-91
2.00000	-91
2.00833	-91
2.01667	-91
2.02500	-91
2.03333	-91
2.04167	-91
2.05000	-91
2.05833	-91
2.06667	-91
2.07500	-91
2.08333	-92
2.09167	-92
2.10000	-92
2.10833	-92
2.11667	-92
2.12500	-92
2.13333	-92
2.14167	-93
2.15000	-93
2.15833	-92
2.16667	-92
2.17500	-93
2.18333	-93
2.19167	-92
2.20000	-92
2.20833	-92
2.21667	-92
2.22500	-92
2.23333	-91
2.24167	-91
2.25000	-91
2.25833	-90
2.26667	-90
2.27500	-89
2.28333	-88
2.29167	-88
2.30000	-87
2.30833	-86
2.31667	-85
2.32500	-83
2.33333	-82
2.34167	-80
2.35000	-79
2.35833	-78
2.36667	-76
2.37500	-74
2.38333	-72
2.39167	-70
2.40000	-68
2.40833	-66
2.41667	-64
2.42500	-62
2.43333	-60
2.44167	-58
2.45000	-55
2.45833	-53
2.46667	-50
2.47500	-47
2.48333	-43
2.49167	-40
2.50000	-36
2.50833	-32
2.51667	-28
2.52500	-23
2.53333	-19
2.54167	-14
2.55000	-9
2.55833	-4
2.56667	2
2.57500	9
2.58333	15
2.59167	23
2.60000	30
2.60833	38
2.61667	47
2.62500	55
2.63333	64
2.64167	74
2.65000	84
2.65833	94
2.66667	105
2.67500	117
2.68333	129
2.69167	142
2.70000	155
2.70833	169
2.71667	183
2.72500	199
2.73333	216
2.74167	233
2.75000	251
2.75833	270
2.76667	290
2.77500	312
2.78333	334
2.79167	358
2.80000	383
2.80833	409
2.81667	437
2.82500	466
2.83333	497
2.84167	529
2.85000	563
2.85833	599
2.86667	636
2.87500	676
2.88333	716
2.89167	759
2.90000	804
2.90833	851
2.91667	900
2.92500	951
2.93333	1005
2.94167	1060
2.95000	1118
2.95833	1178
2.96667	1241
2.97500	1307
2.98333	1375
2.99167	1444
3.00000	1516
3.00833	1591
3.01667	1668
3.02500	1747
3.03333	1828
3.04167	1911
3.05000	1996
3.05833	2083
3.06667	2171
3.07500	2261
3.08333	2352
3.09167	2445
3.10000	2538
3.10833	2631
3.11667	2726
3.12500	2821
3.13333	2916
3.14167	3010
3.15000	3104
3.15833	3196
3.16667	3288
3.17500	3378
3.18333	3465
3.19167	3550
3.20000	3633
3.20833	3713
3.21667	3791
3.22500	3864
3.23333	3934
3.24167	4000
3.25000	4061
3.25833	4119
3.26667	4171
3.27500	4218
3.28333	4260
3.29167	4297
3.30000	4328
3.30833	4353
3.31667	4372
3.32500	4385
3.33333	4393
3.34167	4395
3.35000	4390
3.35833	4380
3.36667	4364
3.37500	4342
3.38333	4314
3.39167	4281
3.40000	4242
3.40833	4199
3.41667	4149
3.42500	4095
3.43333	4037
3.44167	3973
3.45000	3906
3.45833	3834
3.46667	3759
3.47500	3681
3.48333	3599
3.49167	3516
3.50000	3430
3.50833	3341
3.51667	3252
3.52500	3161
3.53333	3069
3.54167	2975
3.55000	2882
3.55833	2787
3.56667	2693
3.57500	2598
3.58333	2504
3.59167	2411
3.60000	2318
3.60833	2227
3.61667	2137
3.62500	2049
3.63333	1962
3.64167	1877
3.65000	1794
3.65833	1712
3.66667	1633
3.67500	1556
3.68333	1482
3.69167	1410
3.70000	1340
3.70833	1272
3.71667	1207
3.72500	1143
3.73333	1083
3.74167	1025
3.75000	969
3.75833	916
3.76667	865
3.77500	817
3.78333	771
3.79167	727
3.80000	685
3.80833	646
3.81667	608
3.82500	573
3.83333	540
3.84167	508
3.85000	477
3.85833	449
3.86667	422
3.87500	398
3.88333	374
3.89167	352
3.90000	332
3.90833	312
3.91667	293
3.92500	276
3.93333	260
3.94167	245
3.95000	231
3.95833	217
3.96667	204
3.97500	193
3.98333	182
3.99167	172
4.00000	163
4.00833	154
4.01667	145
4.02500	137
4.03333	130
4.04167	122
4.05000	115
4.05833	109
4.06667	103
4.07500	97
4.08333	91
4.09167	86
4.10000	81
4.10833	76
4.11667	70
4.12500	65
4.13333	59
4.14167	54
4.15000	49
4.15833	45
4.16667	40
4.17500	36
4.18333	32
4.19167	27
4.20000	23
4.20833	19
4.21667	15
4.22500	11
4.23333	7
4.24167	3
4.25000	-1
4.25833	-5
4.26667	-9
4.27500	-13
4.28333	-17
4.29167	-21
4.30000	-25
4.30833	-28
4.31667	-32
4.32500	-35
4.33333	-39
4.34167	-42
4.35000	-46
4.35833	-49
4.36667	-52
4.37500	-55
4.38333	-57
4.39167	-60
4.40000	-62
4.40833	-65
4.41667	-67
4.42500	-70
4.43333	-72
4.44167	-74
4.45000	-76
4.45833	-78
4.46667	-80
4.47500	-82
4.48333	-83
4.49167	-85
4.50000	-86
4.50833	-88
4.51667	-89
4.52500	-90
4.53333	-90
4.54167	-91
4.55000	-92
4.55833	-93
4.56667	-93
4.57500	-94
4.58333	-94
4.59167	-95
4.60000	-95
4.60833	-95
4.61667	-96
4.62500	-96
4.63333	-96
4.64167	-96
4.65000	-95
4.65833	-95
4.66667	-94
4.67500	-94
4.68333	-93
4.69167	-93
4.70000	-92
4.70833	-92
4.71667	-92
4.72500	-91
4.73333	-91
4.74167	-90
4.75000	-90
4.75833	-89
4.76667	-89
4.77500	-88
4.78333	-87
4.79167	-87
4.80000	-86
4.80833	-85
4.81667	-84
4.82500	-84
4.83333	-83
4.84167	-82
4.85000	-82
4.85833	-81
4.86667	-80
4.87500	-80
4.88333	-79
4.89167	-78
4.90000	-77
4.90833	-77
4.91667	-76
4.92500	-76
4.93333	-76
4.94167	-75
4.95000	-74
4.95833	-74
4.96667	-74
4.97500	-74
4.98333	-74
4.99167	-73
5.00000	-73
5.00833	-73
5.01667	-73
5.02500	-73
5.03333	-73
5.04167	-73
5.05000	-74
5.05833	-74
5.06667	-74
5.07500	-74
5.08333	-74
5.09167	-74
5.10000	-74
5.10833	-75
5.11667	-75
5.12500	-75
5.13333	-75
5.14167	-76
5.15000	-76
5.15833	-77
5.16667	-77
5.17500	-77
5.18333	-77
5.19167	-77
5.20000	-78
5.20833	-78
5.21667	-78
5.22500	-78
5.23333	-79
5.24167	-80
5.25000	-80
5.25833	-81
5.26667	-81
5.27500	-82
5.28333	-83
5.29167	-83
5.30000	-84
5.30833	-84
5.31667	-84
5.32500	-85
5.33333	-85
5.34167	-86
5.35000	-86
5.35833	-86
5.36667	-87
5.37500	-87
5.38333	-88
5.39167	-89
5.40000	-90
5.40833	-90
5.41667	-90
5.42500	-90
5.43333	-91
5.44167	-92
5.45000	-93
5.45833	-94
5.46667	-94
5.47500	-95
5.48333	-95
5.49167	-95
5.50000	-96
5.50833	-96
5.51667	-96
5.52500	-97
5.53333	-97
5.54167	-98
5.55000	-99
5.55833	-100
5.56667	-101
5.57500	-102
5.58333	-102
5.59167	-103
5.60000	-103
5.60833	-104
5.61667	-104
5.62500	-105
5.63333	-105
5.64167	-105
5.65000	-106
5.65833	-106
5.66667	-107
5.67500	-108
5.68333	-108
5.69167	-109
5.70000	-109
5.70833	-110
5.71667	-111
5.72500	-111
5.73333	-112
5.74167	-113
5.75000	-113
5.75833	-114
5.76667	-114
5.77500	-114
5.78333	-115
5.79167	-115
5.80000	-115
5.80833	-116
5.81667	-116
5.82500	-117
5.83333	-117
5.84167	-117
5.85000	-117
5.85833	-118
5.86667	-118
5.87500	-119
5.88333	-119
5.89167	-119
5.90000	-120
5.90833	-121
5.91667	-121
5.92500	-122
5.93333	-122
5.94167	-122
5.95000	-122
5.95833	-122
5.96667	-123
5.97500	-123
5.98333	-123
5.99167	-123
6.00000	-123
6.00833	-124
6.01667	-124
6.02500	-124
6.03333	-124
6.04167	-124
6.05000	-124
6.05833	-124
6.06667	-124
6.07500	-124
6.08333	-124
6.09167	-124
6.10000	-124
6.10833	-124
6.11667	-124
6.12500	-124
6.13333	-124
6.14167	-124
6.15000	-124
6.15833	-124
6.16667	-124
6.17500	-124
6.18333	-123
6.19167	-123
6.20000	-123
6.20833	-123
6.21667	-123
6.22500	-123
6.23333	-123
6.24167	-122
6.25000	-123
6.25833	-123
6.26667	-123
6.27500	-123
6.28333	-123
6.29167	-122
6.30000	-122
6.30833	-122
6.31667	-122
6.32500	-122
6.33333	-122
6.34167	-122
6.35000	-122
6.35833	-122
6.36667	-122
6.37500	-122
6.38333	-122
6.39167	-122
6.40000	-122
6.40833	-121
6.41667	-121
6.42500	-122
6.43333	-122
6.44167	-122
6.45000	-122
6.45833	-122
6.46667	-122
6.47500	-122
6.48333	-122
6.49167	-123
6.50000	-123
6.50833	-124
6.51667	-124
6.52500	-124
6.53333	-124
6.54167	-124
6.55000	-124
6.55833	-124
6.56667	-124
6.57500	-124
6.58333	-124
6.59167	-124
6.60000	-124
6.60833	-124
6.61667	-125
6.62500	-125
6.63333	-125
6.64167	-126
6.65000	-126
6.65833	-126
6.66667	-126
6.67500	-126
6.68333	-126
6.69167	-126
6.70000	-127
6.70833	-127
6.71667	-127
6.72500	-128
6.73333	-128
6.74167	-129
6.75000	-129
6.75833	-129
6.76667	-130
6.77500	-130
6.78333	-130
6.79167	-130
6.80000	-131
6.80833	-131
6.81667	-130
6.82500	-130
6.83333	-130
6.84167	-130
6.85000	-130
6.85833	-131
6.86667	-131
6.87500	-131
6.88333	-131
6.89167	-131
6.90000	-131
6.90833	-131
6.91667	-131
6.92500	-130
6.93333	-130
6.94167	-130
6.95000	-129
6.95833	-129
6.96667	-129
6.97500	-129
6.98333	-129
6.99167	-129
7.00000	-129
7.00833	-129
7.01667	-129
7.02500	-129
7.03333	-128
7.04167	-128
7.05000	-127
7.05833	-125
7.06667	-123
7.07500	-121
7.08333	-118
7.09167	-115
7.10000	-111
7.10833	-106
7.11667	-100
7.12500	-92
7.13333	-84
7.14167	-74
7.15000	-63
7.15833	-50
7.16667	-36
7.17500	-20
7.18333	-2
7.19167	17
7.20000	39
7.20833	62
7.21667	87
7.22500	113
7.23333	141
7.24167	169
7.25000	197
7.25833	225
7.26667	250
7.27500	271
7.28333	287
7.29167	296
7.30000	297
7.30833	288
7.31667	271
7.32500	247
7.33333	220
7.34167	198
7.35000	189
7.35833	206
7.36667	266
7.37500	385
7.38333	583
7.39167	879
7.40000	1292
7.40833	1837
7.41667	2529
7.42500	3376
7.43333	4381
7.44167	5541
7.45000	6845
7.45833	8272
7.46667	9793
7.47500	11369
7.48333	12952
7.49167	14484
7.50000	15904
7.50833	17149
7.51667	18161
7.52500	18890
7.53333	19302
7.54167	19381
7.55000	19131
7.55833	18577
7.56667	17760
7.57500	16731
7.58333	15549
7.59167	14274
7.60000	12962
7.60833	11663
7.61667	10414
7.62500	9246
7.63333	8177
7.64167	7217
7.65000	6369
7.65833	5629
7.66667	4989
7.67500	4442
7.68333	3975
7.69167	3577
7.70000	3238
7.70833	2949
7.71667	2700
7.72500	2484
7.73333	2296
7.74167	2129
7.75000	1980
7.75833	1847
7.76667	1727
7.77500	1617
7.78333	1517
7.79167	1424
7.80000	1338
7.80833	1259
7.81667	1184
7.82500	1115
7.83333	1049
7.84167	987
7.85000	928
7.85833	872
7.86667	818
7.87500	767
7.88333	719
7.89167	674
7.90000	631
7.90833	590
7.91667	553
7.92500	518
7.93333	486
7.94167	456
7.95000	429
7.95833	405
7.96667	384
7.97500	366
7.98333	351
7.99167	337
8.00000	326
8.00833	316
8.01667	308
8.02500	300
8.03333	294
8.04167	288
8.05000	281
8.05833	275
8.06667	268
8.07500	261
8.08333	254
8.09167	247
8.10000	239
8.10833	231
8.11667	223
8.12500	216
8.13333	208
8.14167	200
8.15000	192
8.15833	184
8.16667	177
8.17500	170
8.18333	163
8.19167	157
8.20000	151
8.20833	145
8.21667	140
8.22500	135
8.23333	131
8.24167	127
8.25000	124
8.25833	121
8.26667	118
8.27500	115
8.28333	113
8.29167	111
8.30000	109
8.30833	108
8.31667	107
8.32500	105
8.33333	104
8.34167	103
8.35000	101
8.35833	100
8.36667	100
8.37500	99
8.38333	97
8.39167	96
8.40000	95
8.40833	94
8.41667	93
8.42500	91
8.43333	90
8.44167	88
8.45000	87
8.45833	85
8.46667	84
8.47500	82
8.48333	80
8.49167	79
8.50000	77
8.50833	76
8.51667	74
8.52500	72
8.53333	70
8.54167	69
8.55000	67
8.55833	66
8.56667	65
8.57500	64
8.58333	62
8.59167	61
8.60000	61
8.60833	61
8.61667	61
8.62500	61
8.63333	62
8.64167	62
8.65000	63
8.65833	63
8.66667	64
8.67500	66
8.68333	67
8.69167	70
8.70000	72
8.70833	75
8.71667	78
8.72500	82
8.73333	86
8.74167	90
8.75000	94
8.75833	98
8.76667	102
8.77500	106
8.78333	111
8.79167	115
8.80000	121
8.80833	126
8.81667	133
8.82500	140
8.83333	149
8.84167	159
8.85000	171
8.85833	185
8.86667	202
8.87500	223
8.88333	247
8.89167	277
8.90000	313
8.90833	355
8.91667	405
8.92500	462
8.93333	529
8.94167	604
8.95000	688
8.95833	781
8.96667	883
8.97500	993
8.98333	1109
8.99167	1230
9.00000	1354
9.00833	1479
9.01667	1603
9.02500	1723
9.03333	1837
9.04167	1941
9.05000	2035
9.05833	2115
9.06667	2181
9.07500	2230
9.08333	2263
9.09167	2279
9.10000	2278
9.10833	2260
9.11667	2227
9.12500	2179
9.13333	2119
9.14167	2047
9.15000	1966
9.15833	1879
9.16667	1786
9.17500	1689
9.18333	1591
9.19167	1493
9.20000	1396
9.20833	1302
9.21667	1211
9.22500	1124
9.23333	1043
9.24167	967
9.25000	897
9.25833	833
9.26667	775
9.27500	722
9.28333	675
9.29167	634
9.30000	596
9.30833	564
9.31667	536
9.32500	512
9.33333	492
9.34167	475
9.35000	462
9.35833	453
9.36667	447
9.37500	444
9.38333	445
9.39167	451
9.40000	461
9.40833	476
9.41667	498
9.42500	528
9.43333	568
9.44167	619
9.45000	684
9.45833	765
9.46667	867
9.47500	992
9.48333	1145
9.49167	1332
9.50000	1556
9.50833	1824
9.51667	2140
9.52500	2511
9.53333	2940
9.54167	3431
9.55000	3987
9.55833	4611
9.56667	5301
9.57500	6056
9.58333	6873
9.59167	7744
9.60000	8664
9.60833	9621
9.61667	10605
9.62500	11600
9.63333	12593
9.64167	13569
9.65000	14512
9.65833	15408
9.66667	16242
9.67500	17000
9.68333	17672
9.69167	18248
9.70000	18722
9.70833	19091
9.71667	19353
9.72500	19510
9.73333	19566
9.74167	19529
9.75000	19406
9.75833	19210
9.76667	18951
9.77500	18643
9.78333	18299
9.79167	17931
9.80000	17551
9.80833	17172
9.81667	16804
9.82500	16458
9.83333	16141
9.84167	15862
9.85000	15625
9.85833	15435
9.86667	15296
9.87500	15209
9.88333	15176
9.89167	15196
9.90000	15269
9.90833	15393
9.91667	15566
9.92500	15787
9.93333	16052
9.94167	16358
9.95000	16702
9.95833	17081
9.96667	17492
9.97500	17931
9.98333	18395
9.99167	18880
10.00000	19383
10.00833	19901
10.01667	20429
10.02500	20961
10.03333	21490
10.04167	22005
10.05000	22491
10.05833	22925
10.06667	23279
10.07500	23518
10.08333	23603
10.09167	23496
10.10000	23166
10.10833	22591
10.11667	21767
10.12500	20709
10.13333	19448
10.14167	18030
10.15000	16508
10.15833	14938
10.16667	13374
10.17500	11860
10.18333	10434
10.19167	9118
10.20000	7929
10.20833	6872
10.21667	5945
10.22500	5142
10.23333	4452
10.24167	3864
10.25000	3366
10.25833	2945
10.26667	2590
10.27500	2292
10.28333	2040
10.29167	1828
10.30000	1647
10.30833	1493
10.31667	1361
10.32500	1246
10.33333	1146
10.34167	1058
10.35000	981
10.35833	911
10.36667	849
10.37500	792
10.38333	740
10.39167	692
10.40000	649
10.40833	608
10.41667	571
10.42500	537
10.43333	505
10.44167	476
10.45000	450
10.45833	426
10.46667	404
10.47500	385
10.48333	368
10.49167	353
10.50000	341
10.50833	331
10.51667	323
10.52500	316
10.53333	312
10.54167	310
10.55000	309
10.55833	309
10.56667	311
10.57500	312
10.58333	314
10.59167	316
10.60000	317
10.60833	319
10.61667	319
10.62500	319
10.63333	318
10.64167	316
10.65000	312
10.65833	307
10.66667	301
10.67500	294
10.68333	286
10.69167	278
10.70000	268
10.70833	259
10.71667	249
10.72500	239
10.73333	231
10.74167	223
10.75000	216
10.75833	211
10.76667	207
10.77500	204
10.78333	204
10.79167	205
10.80000	208
10.80833	213
10.81667	220
10.82500	227
10.83333	237
10.84167	247
10.85000	258
10.85833	269
10.86667	281
10.87500	292
10.88333	303
10.89167	312
10.90000	320
10.90833	326
10.91667	331
10.92500	334
10.93333	335
10.94167	333
10.95000	330
10.95833	324
10.96667	317
10.97500	309
10.98333	298
10.99167	287
11.00000	274
11.00833	261
11.01667	247
11.02500	233
11.03333	219
11.04167	206
11.05000	192
11.05833	179
11.06667	168
11.07500	157
11.08333	147
11.09167	138
11.10000	131
11.10833	124
11.11667	118
11.12500	113
11.13333	110
11.14167	107
11.15000	106
11.15833	106
11.16667	106
11.17500	108
11.18333	109
11.19167	112
11.20000	115
11.20833	118
11.21667	121
11.22500	124
11.23333	128
11.24167	131
11.25000	134
11.25833	137
11.26667	140
11.27500	142
11.28333	144
11.29167	146
11.30000	146
11.30833	147
11.31667	146
11.32500	146
11.33333	144
11.34167	143
11.35000	140
11.35833	138
11.36667	135
11.37500	131
11.38333	128
11.39167	124
11.40000	120
11.40833	115
11.41667	111
11.42500	107
11.43333	103
11.44167	98
11.45000	94
11.45833	89
11.46667	85
11.47500	82
11.48333	78
11.49167	75
11.50000	72
11.50833	69
11.51667	66
11.52500	63
11.53333	61
11.54167	59
11.55000	57
11.55833	55
11.56667	53
11.57500	52
11.58333	51
11.59167	50
11.60000	49
11.60833	49
11.61667	49
11.62500	48
11.63333	49
11.64167	50
11.65000	51
11.65833	52
11.66667	53
11.67500	56
11.68333	59
11.69167	62
11.70000	65
11.70833	68
11.71667	72
11.72500	75
11.73333	79
11.74167	84
11.75000	88
11.75833	91
11.76667	95
11.77500	97
11.78333	100
11.79167	102
11.80000	103
11.80833	103
11.81667	103
11.82500	102
11.83333	100
11.84167	98
11.85000	95
11.85833	92
11.86667	87
11.87500	83
11.88333	78
11.89167	73
11.90000	68
11.90833	62
11.91667	57
11.92500	51
11.93333	45
11.94167	40
11.95000	35
11.95833	30
11.96667	25
11.97500	21
11.98333	17
11.99167	13
12.00000	10
12.00833	7
12.01667	5
12.02500	3
12.03333	1
12.04167	-0
12.05000	-1
12.05833	-2
12.06667	-2
12.07500	-3
12.08333	-3
12.09167	-3
12.10000	-3
12.10833	-3
12.11667	-4
12.12500	-4
12.13333	-4
12.14167	-3
12.15000	-3
12.15833	-4
12.16667	-4
12.17500	-4
12.18333	-5
12.19167	-5
12.20000	-6
12.20833	-6
12.21667	-6
12.22500	-7
12.23333	-7
12.24167	-8
12.25000	-9
12.25833	-10
12.26667	-11
12.27500	-12
12.28333	-13
12.29167	-14
12.30000	-16
12.30833	-17
12.31667	-18
12.32500	-20
12.33333	-21
12.34167	-23
12.35000	-24
12.35833	-26
12.36667	-28
12.37500	-30
12.38333	-31
12.39167	-33
12.40000	-35
12.40833	-36
12.41667	-38
12.42500	-39
12.43333	-40
12.44167	-41
12.45000	-42
12.45833	-43
12.46667	-44
12.47500	-44
12.48333	-45
12.49167	-45
12.50000	-46
12.50833	-46
12.51667	-47
12.52500	-47
12.53333	-46
12.54167	-46
12.55000	-46
12.55833	-46
12.56667	-45
12.57500	-45
12.58333	-44
12.59167	-43
12.60000	-42
12.60833	-42
12.61667	-41
12.62500	-39
12.63333	-39
12.64167	-38
12.65000	-37
12.65833	-35
12.66667	-34
12.67500	-33
12.68333	-32
12.69167	-31
12.70000	-30
12.70833	-29
12.71667	-28
12.72500	-27
12.73333	-27
12.74167	-26
12.75000	-26
12.75833	-25
12.76667	-24
12.77500	-24
12.78333	-23
12.79167	-22
12.80000	-22
12.80833	-22
12.81667	-22
12.82500	-22
12.83333	-22
12.84167	-21
12.85000	-21
12.85833	-20
12.86667	-19
12.87500	-19
12.88333	-18
12.89167	-18
12.90000	-18
12.90833	-17
12.91667	-16
12.92500	-15
12.93333	-14
12.94167	-14
12.95000	-12
12.95833	-11
12.96667	-10
12.97500	-9
12.98333	-8
12.99167	-8
13.00000	-6
13.00833	-5
13.01667	-4
13.02500	-3
13.03333	-2
13.04167	-1
13.05000	-0
13.05833	1
13.06667	1
13.07500	2
13.08333	2
13.09167	3
13.10000	3
13.10833	4
13.11667	4
13.12500	4
13.13333	4
13.14167	4
13.15000	3
13.15833	3
13.16667	3
13.17500	2
13.18333	2
13.19167	1
13.20000	0
13.20833	-0
13.21667	-0
13.22500	-1
13.23333	-1
13.24167	-1
13.25000	-2
13.25833	-1
13.26667	-2
13.27500	-2
13.28333	-1
13.29167	-1
13.30000	-1
13.30833	-0
13.31667	1
13.32500	1
13.33333	2
13.34167	3
13.35000	3
13.35833	4
13.36667	4
13.37500	5
13.38333	6
13.39167	6
13.40000	7
13.40833	8
13.41667	9
13.42500	10
13.43333	10
13.44167	11
13.45000	12
13.45833	13
13.46667	14
13.47500	16
13.48333	17
13.49167	19
13.50000	21
13.50833	23
13.51667	26
13.52500	28
13.53333	31
13.54167	34
13.55000	37
13.55833	41
13.56667	45
13.57500	49
13.58333	54
13.59167	59
13.60000	65
13.60833	71
13.61667	79
13.62500	86
13.63333	94
13.64167	103
13.65000	112
13.65833	121
13.66667	131
13.67500	140
13.68333	150
13.69167	159
13.70000	168
13.70833	177
13.71667	186
13.72500	195
13.73333	203
13.74167	210
13.75000	218
13.75833	224
13.76667	230
13.77500	236
13.78333	241
13.79167	246
13.80000	251
13.80833	256
13.81667	261
13.82500	266
13.83333	271
13.84167	276
13.85000	282
13.85833	288
13.86667	295
13.87500	302
13.88333	308
13.89167	315
13.90000	323
13.90833	330
13.91667	336
13.92500	342
13.93333	348
13.94167	353
13.95000	357
13.95833	361
13.96667	364
13.97500	366
13.98333	367
13.99167	367
14.00000	366
14.00833	363
14.01667	359
14.02500	354
14.03333	348
14.04167	342
14.05000	335
14.05833	327
14.06667	319
14.07500	310
14.08333	301
14.09167	292
14.10000	283
14.10833	274
14.11667	265
14.12500	256
14.13333	248
14.14167	241
14.15000	234
14.15833	227
14.16667	220
14.17500	215
14.18333	209
14.19167	204
14.20000	200
14.20833	197
14.21667	194
14.22500	191
14.23333	188
14.24167	186
14.25000	184
14.25833	183
14.26667	182
14.27500	181
14.28333	180
14.29167	179
14.30000	179
14.30833	179
14.31667	180
14.32500	181
14.33333	181
14.34167	182
14.35000	183
14.35833	184
14.36667	185
14.37500	186
14.38333	188
14.39167	189
14.40000	191
14.40833	192
14.41667	193
14.42500	194
14.43333	196
14.44167	197
14.45000	198
14.45833	200
14.46667	201
14.47500	202
14.48333	203
14.49167	203
14.50000	204
14.50833	205
14.51667	206
14.52500	206
14.53333	206
14.54167	207
14.55000	207
14.55833	208
14.56667	208
14.57500	208
14.58333	207
14.59167	207
14.60000	207
14.60833	207
14.61667	207
14.62500	206
14.63333	206
14.64167	205
14.65000	205
14.65833	204
14.66667	203
14.67500	203
14.68333	202
14.69167	201
14.70000	200
14.70833	200
14.71667	199
14.72500	198
14.73333	197
14.74167	197
14.75000	196
14.75833	196
14.76667	196
14.77500	195
14.78333	195
14.79167	194
14.80000	193
14.80833	193
14.81667	193
14.82500	193
14.83333	193
14.84167	193
14.85000	193
14.85833	193
14.86667	193
14.87500	192
14.88333	192
14.89167	192
14.90000	193
14.90833	193
14.91667	192
14.92500	192
14.93333	192
14.94167	192
14.95000	192
14.95833	192
14.96667	193
14.97500	194
14.98333	194
14.99167	194
15.00000	195
15.00833	196
15.01667	198
15.02500	200
15.03333	202
15.04167	205
15.05000	208
15.05833	211
15.06667	215
15.07500	220
15.08333	225
15.09167	231
15.10000	238
15.10833	246
15.11667	255
15.12500	264
15.13333	275
15.14167	286
15.15000	298
15.15833	310
15.16667	323
15.17500	336
15.18333	350
15.19167	363
15.20000	377
15.20833	390
15.21667	402
15.22500	414
15.23333	425
15.24167	435
15.25000	444
15.25833	450
15.26667	456
15.27500	460
15.28333	462
15.29167	462
15.30000	461
15.30833	458
15.31667	453
15.32500	447
15.33333	439
15.34167	429
15.35000	418
15.35833	405
15.36667	392
15.37500	378
15.38333	363
15.39167	347
15.40000	331
15.40833	315
15.41667	299
15.42500	283
15.43333	268
15.44167	253
15.45000	238
15.45833	224
15.46667	210
15.47500	198
15.48333	185
15.49167	174
15.50000	163
15.50833	152
15.51667	143
15.52500	134
15.53333	125
15.54167	117
15.55000	109
15.55833	102
15.56667	96
15.57500	90
15.58333	84
15.59167	79
15.60000	75
15.60833	71
15.61667	67
15.62500	64
15.63333	61
15.64167	58
15.65000	55
15.65833	53
15.66667	50
15.67500	48
15.68333	46
15.69167	45
15.70000	44
15.70833	42
15.71667	42
15.72500	41
15.73333	41
15.74167	40
15.75000	40
15.75833	40
15.76667	39
15.77500	39
15.78333	40
15.79167	40
15.80000	41
15.80833	41
15.81667	42
15.82500	42
15.83333	43
15.84167	44
15.85000	45
15.85833	46
15.86667	48
15.87500	51
15.88333	53
15.89167	55
15.90000	58
15.90833	62
15.91667	66
15.92500	71
15.93333	76
15.94167	82
15.95000	89
15.95833	97
15.96667	105
15.97500	114
15.98333	125
15.99167	135
16.00000	147
16.00833	159
16.01667	173
16.02500	186
16.03333	201
16.04167	216
16.05000	231
16.05833	247
16.06667	262
16.07500	277
16.08333	291
16.09167	305
16.10000	318
16.10833	331
16.11667	342
16.12500	353
16.13333	361
16.14167	368
16.15000	373
16.15833	377
16.16667	379
16.17500	379
16.18333	378
16.19167	376
16.20000	372
16.20833	367
16.21667	361
16.22500	353
16.23333	345
16.24167	336
16.25000	327
16.25833	318
16.26667	308
16.27500	299
16.28333	290
16.29167	282
16.30000	274
16.30833	267
16.31667	261
16.32500	256
16.33333	251
16.34167	248
16.35000	246
16.35833	245
16.36667	246
16.37500	248
16.38333	252
16.39167	257
16.40000	263
16.40833	271
16.41667	280
16.42500	291
16.43333	303
16.44167	317
16.45000	332
16.45833	349
16.46667	367
16.47500	388
16.48333	409
16.49167	432
16.50000	456
16.50833	481
16.51667	508
16.52500	535
16.53333	564
16.54167	593
16.55000	622
16.55833	651
16.56667	680
16.57500	709
16.58333	736
16.59167	762
16.60000	786
16.60833	809
16.61667	829
16.62500	847
16.63333	863
16.64167	875
16.65000	885
16.65833	891
16.66667	894
16.67500	893
16.68333	889
16.69167	881
16.70000	870
16.70833	856
16.71667	839
16.72500	820
16.73333	798
16.74167	773
16.75000	747
16.75833	720
16.76667	692
16.77500	661
16.78333	630
16.79167	599
16.80000	568
16.80833	537
16.81667	507
16.82500	477
16.83333	449
16.84167	420
16.85000	393
16.85833	367
16.86667	343
16.87500	320
16.88333	298
16.89167	277
16.90000	257
16.90833	239
16.91667	223
16.92500	207
16.93333	193
16.94167	179
16.95000	166
16.95833	154
16.96667	143
16.97500	132
16.98333	123
16.99167	115
17.00000	107
17.00833	100
17.01667	93
17.02500	87
17.03333	81
17.04167	76
17.05000	71
17.05833	67
17.06667	63
17.07500	59
17.08333	56
17.09167	53
17.10000	50
17.10833	48
17.11667	45
17.12500	42
17.13333	40
17.14167	37
17.15000	35
17.15833	34
17.16667	32
17.17500	30
17.18333	28
17.19167	26
17.20000	25
17.20833	24
17.21667	23
17.22500	22
17.23333	21
17.24167	20
17.25000	20
17.25833	19
17.26667	18
17.27500	17
17.28333	16
17.29167	15
17.30000	15
17.30833	15
17.31667	15
17.32500	14
17.33333	14
17.34167	13
17.35000	13
17.35833	13
17.36667	13
17.37500	13
17.38333	13
17.39167	12
17.40000	12
17.40833	12
17.41667	12
17.42500	12
17.43333	13
17.44167	13
17.45000	13
17.45833	14
17.46667	15
17.47500	16
17.48333	16
17.49167	17
17.50000	18
17.50833	19
17.51667	20
17.52500	21
17.53333	23
17.54167	25
17.55000	27
17.55833	29
17.56667	31
17.57500	33
17.58333	35
17.59167	37
17.60000	40
17.60833	43
17.61667	46
17.62500	50
17.63333	54
17.64167	58
17.65000	63
17.65833	68
17.66667	74
17.67500	80
17.68333	86
17.69167	93
17.70000	101
17.70833	110
17.71667	120
17.72500	130
17.73333	142
17.74167	155
17.75000	169
17.75833	184
17.76667	201
17.77500	220
17.78333	240
17.79167	263
17.80000	288
17.80833	315
17.81667	345
17.82500	377
17.83333	413
17.84167	453
17.85000	497
17.85833	545
17.86667	599
17.87500	657
17.88333	720
17.89167	790
17.90000	865
17.90833	947
17.91667	1035
17.92500	1130
17.93333	1232
17.94167	1341
17.95000	1457
17.95833	1580
17.96667	1709
17.97500	1845
17.98333	1985
17.99167	2131
18.00000	2280
18.00833	2433
18.01667	2587
18.02500	2742
18.03333	2896
18.04167	3048
18.05000	3197
18.05833	3340
18.06667	3476
18.07500	3604
18.08333	3723
18.09167	3830
18.10000	3926
18.10833	4009
18.11667	4077
18.12500	4130
18.13333	4168
18.14167	4190
18.15000	4196
18.15833	4186
18.16667	4161
18.17500	4120
18.18333	4065
18.19167	3997
18.20000	3916
18.20833	3823
18.21667	3720
18.22500	3608
18.23333	3487
18.24167	3360
18.25000	3228
18.25833	3092
18.26667	2954
18.27500	2815
18.28333	2675
18.29167	2536
18.30000	2399
18.30833	2265
18.31667	2134
18.32500	2007
18.33333	1884
18.34167	1766
18.35000	1653
18.35833	1546
18.36667	1444
18.37500	1347
18.38333	1257
18.39167	1171
18.40000	1092
18.40833	1018
18.41667	949
18.42500	884
18.43333	825
18.44167	770
18.45000	719
18.45833	673
18.46667	630
18.47500	591
18.48333	554
18.49167	521
18.50000	490
18.50833	462
18.51667	436
18.52500	413
18.53333	391
18.54167	372
18.55000	354
18.55833	338
18.56667	323
18.57500	310
18.58333	299
18.59167	289
18.60000	280
18.60833	272
18.61667	265
18.62500	260
18.63333	255
18.64167	251
18.65000	248
18.65833	245
18.66667	244
18.67500	243
18.68333	244
18.69167	245
18.70000	248
18.70833	251
18.71667	255
18.72500	260
18.73333	265
18.74167	271
18.75000	278
18.75833	285
18.76667	293
18.77500	302
18.78333	310
18.79167	319
18.80000	328
18.80833	337
18.81667	347
18.82500	356
18.83333	366
18.84167	375
18.85000	384
18.85833	393
18.86667	402
18.87500	410
18.88333	417
18.89167	424
18.90000	429
18.90833	434
18.91667	438
18.92500	441
18.93333	442
18.94167	443
18.95000	443
18.95833	442
18.96667	440
18.97500	437
18.98333	433
18.99167	429
19.00000	424
19.00833	417
19.01667	410
19.02500	403
19.03333	395
19.04167	386
19.05000	378
19.05833	368
19.06667	359
19.07500	350
19.08333	341
19.09167	331
19.10000	321
19.10833	312
19.11667	303
19.12500	294
19.13333	285
19.14167	277
19.15000	269
19.15833	261
19.16667	253
19.17500	246
19.18333	240
19.19167	233
19.20000	227
19.20833	221
19.21667	216
19.22500	212
19.23333	208
19.24167	204
19.25000	201
19.25833	198
19.26667	195
19.27500	192
19.28333	190
19.29167	188
19.30000	186
19.30833	184
19.31667	183
19.32500	182
19.33333	181
19.34167	180
19.35000	180
19.35833	180
19.36667	180
19.37500	180
19.38333	180
19.39167	180
19.40000	181
19.40833	181
19.41667	182
19.42500	182
19.43333	183
19.44167	184
19.45000	184
19.45833	185
19.46667	186
19.47500	187
19.48333	189
19.49167	190
19.50000	191
19.50833	192
19.51667	193
19.52500	193
19.53333	194
19.54167	195
19.55000	196
19.55833	197
19.56667	198
19.57500	199
19.58333	199
19.59167	200
19.60000	201
19.60833	202
19.61667	203
19.62500	203
19.63333	204
19.64167	204
19.65000	205
19.65833	205
19.66667	206
19.67500	207
19.68333	208
19.69167	208
19.70000	209
19.70833	210
19.71667	210
19.72500	211
19.73333	211
19.74167	212
19.75000	213
19.75833	213
19.76667	214
19.77500	215
19.78333	215
19.79167	215
19.80000	216
19.80833	217
19.81667	217
19.82500	217
19.83333	218
19.84167	218
19.85000	218
19.85833	218
19.86667	219
19.87500	219
19.88333	220
19.89167	220
19.90000	221
19.90833	222
19.91667	222
19.92500	223
19.93333	223
19.94167	223
19.95000	224
19.95833	224
19.96667	224
19.97500	225
19.98333	225
19.99167	226
20.00000	227
20.00833	227
20.01667	227
20.02500	228
20.03333	229
20.04167	230
20.05000	231
20.05833	231
20.06667	232
20.07500	233
20.08333	234
20.09167	234
20.10000	235
20.10833	235
20.11667	236
20.12500	237
20.13333	238
20.14167	239
20.15000	240
20.15833	241
20.16667	242
20.17500	243
20.18333	244
20.19167	245
20.20000	246
20.20833	247
20.21667	249
20.22500	250
20.23333	251
20.24167	252
20.25000	254
20.25833	255
20.26667	256
20.27500	257
20.28333	259
20.29167	261
20.30000	263
20.30833	264
20.31667	266
20.32500	268
20.33333	270
20.34167	272
20.35000	274
20.35833	276
20.36667	278
20.37500	281
20.38333	283
20.39167	286
20.40000	288
20.40833	292
20.41667	295
20.42500	298
20.43333	302
20.44167	306
20.45000	310
20.45833	314
20.46667	319
20.47500	324
20.48333	329
20.49167	335
20.50000	341
20.50833	347
20.51667	354
20.52500	360
20.53333	368
20.54167	375
20.55000	384
20.55833	393
20.56667	403
20.57500	413
20.58333	424
20.59167	436
20.60000	449
20.60833	463
20.61667	478
20.62500	494
20.63333	511
20.64167	529
20.65000	548
20.65833	568
20.66667	590
20.67500	613
20.68333	637
20.69167	663
20.70000	690
20.70833	718
20.71667	747
20.72500	777
20.73333	809
20.74167	842
20.75000	876
20.75833	910
20.76667	946
20.77500	982
20.78333	1019
20.79167	1057
20.80000	1095
20.80833	1132
20.81667	1171
20.82500	1209
20.83333	1247
20.84167	1285
20.85000	1323
20.85833	1361
20.86667	1397
20.87500	1433
20.88333	1468
20.89167	1502
20.90000	1535
20.90833	1568
20.91667	1599
20.92500	1630
20.93333	1660
20.94167	1689
20.95000	1718
20.95833	1746
20.96667	1773
20.97500	1800
20.98333	1827
20.99167	1854
21.00000	1882
21.00833	1910
21.01667	1939
21.02500	1969
21.03333	2000
21.04167	2033
21.05000	2068
21.05833	2104
21.06667	2144
21.07500	2187
21.08333	2232
21.09167	2282
21.10000	2336
21.10833	2395
21.11667	2460
21.12500	2530
21.13333	2606
21.14167	2690
21.15000	2782
21.15833	2882
21.16667	2990
21.17500	3108
21.18333	3236
21.19167	3374
21.20000	3525
21.20833	3688
21.21667	3863
21.22500	4052
21.23333	4254
21.24167	4471
21.25000	4701
21.25833	4946
21.26667	5205
21.27500	5479
21.28333	5767
21.29167	6068
21.30000	6383
21.30833	6710
21.31667	7048
21.32500	7397
21.33333	7755
21.34167	8121
21.35000	8493
21.35833	8869
21.36667	9247
21.37500	9626
21.38333	10003
21.39167	10375
21.40000	10741
21.40833	11098
21.41667	11444
21.42500	11776
21.43333	12092
21.44167	12391
21.45000	12669
21.45833	12924
21.46667	13156
21.47500	13361
21.48333	13539
21.49167	13690
21.50000	13811
21.50833	13901
21.51667	13961
21.52500	13989
21.53333	13987
21.54167	13954
21.55000	13891
21.55833	13798
21.56667	13676
21.57500	13527
21.58333	13352
21.59167	13151
21.60000	12928
21.60833	12683
21.61667	12418
21.62500	12136
21.63333	11838
21.64167	11526
21.65000	11202
21.65833	10869
21.66667	10528
21.67500	10181
21.68333	9830
21.69167	9476
21.70000	9122
21.70833	8768
21.71667	8416
21.72500	8068
21.73333	7725
21.74167	7388
21.75000	7058
21.75833	6736
21.76667	6422
21.77500	6118
21.78333	5824
21.79167	5539
21.80000	5266
21.80833	5002
21.81667	4750
21.82500	4509
21.83333	4278
21.84167	4058
21.85000	3848
21.85833	3648
21.86667	3458
21.87500	3278
21.88333	3108
21.89167	2947
21.90000	2795
21.90833	2652
21.91667	2516
21.92500	2388
21.93333	2268
21.94167	2154
21.95000	2047
21.95833	1947
21.96667	1852
21.97500	1764
21.98333	1680
21.99167	1602
22.00000	1528
22.00833	1459
22.01667	1394
22.02500	1334
22.03333	1278
22.04167	1225
22.05000	1175
22.05833	1129
22.06667	1085
22.07500	1044
22.08333	1006
22.09167	970
22.10000	938
22.10833	907
22.11667	879
22.12500	852
22.13333	827
22.14167	804
22.15000	783
22.15833	763
22.16667	745
22.17500	729
22.18333	713
22.19167	700
22.20000	688
22.20833	677
22.21667	667
22.22500	658
22.23333	649
22.24167	642
22.25000	635
22.25833	629
22.26667	624
22.27500	620
22.28333	616
22.29167	613
22.30000	610
22.30833	607
22.31667	605
22.32500	603
22.33333	601
22.34167	600
22.35000	599
22.35833	598
22.36667	596
22.37500	595
22.38333	594
22.39167	593
22.40000	592
22.40833	591
22.41667	589
22.42500	588
22.43333	586
22.44167	584
22.45000	582
22.45833	579
22.46667	576
22.47500	573
22.48333	569
22.49167	566
22.50000	563
22.50833	559
22.51667	555
22.52500	550
22.53333	545
22.54167	540
22.55000	534
22.55833	528
22.56667	522
22.57500	516
22.58333	509
22.59167	503
22.60000	496
22.60833	490
22.61667	483
22.62500	477
22.63333	470
22.64167	463
22.65000	457
22.65833	450
22.66667	443
22.67500	436
22.68333	429
22.69167	423
22.70000	417
22.70833	411
22.71667	405
22.72500	399
22.73333	394
22.74167	389
22.75000	385
22.75833	380
22.76667	376
22.77500	372
22.78333	369
22.79167	365
22.80000	362
22.80833	360
22.81667	358
22.82500	356
22.83333	355
22.84167	353
22.85000	352
22.85833	351
22.86667	351
22.87500	351
22.88333	352
22.89167	353
22.90000	354
22.90833	356
22.91667	357
22.92500	359
22.93333	361
22.94167	364
22.95000	366
22.95833	369
22.96667	371
22.97500	374
22.98333	376
22.99167	379
23.00000	382
23.00833	385
23.01667	388
23.02500	391
23.03333	394
23.04167	398
23.05000	401
23.05833	404
23.06667	407
23.07500	409
23.08333	412
23.09167	414
23.10000	416
23.10833	418
23.11667	420
23.12500	422
23.13333	423
23.14167	424
23.15000	426
23.15833	427
23.16667	429
23.17500	430
23.18333	431
23.19167	432
23.20000	433
23.20833	433
23.21667	434
23.22500	434
23.23333	434
23.24167	434
23.25000	434
23.25833	434
23.26667	434
23.27500	434
23.28333	433
23.29167	433
23.30000	433
23.30833	433
23.31667	433
23.32500	432
23.33333	431
23.34167	430
23.35000	429
23.35833	429
23.36667	428
23.37500	427
23.38333	426
23.39167	425
23.40000	424
23.40833	423
23.41667	423
23.42500	423
23.43333	422
23.44167	421
23.45000	421
23.45833	420
23.46667	420
23.47500	419
23.48333	418
23.49167	418
23.50000	417
23.50833	417
23.51667	416
23.52500	415
23.53333	415
23.54167	414
23.55000	414
23.55833	414
23.56667	414
23.57500	414
23.58333	414
23.59167	414
23.60000	414
23.60833	413
23.61667	413
23.62500	413
23.63333	413
23.64167	413
23.65000	413
23.65833	413
23.66667	413
23.67500	413
23.68333	413
23.69167	413
23.70000	413
23.70833	413
23.71667	413
23.72500	413
23.73333	413
23.74167	413
23.75000	414
23.75833	414
23.76667	414
23.77500	414
23.78333	414
23.79167	415
23.80000	415
23.80833	416
23.81667	416
23.82500	416
23.83333	417
23.84167	417
23.85000	417
23.85833	417
23.86667	416
23.87500	417
23.88333	416
23.89167	416
23.90000	416
23.90833	415
23.91667	415
23.92500	416
23.93333	416
23.94167	416
23.95000	416
23.95833	416
23.96667	416
23.97500	416
23.98333	416
23.99167	416
24.00000	416
24.00833	415
24.01667	415
24.02500	414
24.03333	414
24.04167	414
24.05000	414
24.05833	414
24.06667	414
24.07500	414
24.08333	413
24.09167	413
24.10000	412
24.10833	411
24.11667	410
24.12500	408
24.13333	407
24.14167	406
24.15000	405
24.15833	404
24.16667	402
24.17500	401
24.18333	399
24.19167	398
24.20000	396
24.20833	394
24.21667	392
24.22500	390
24.23333	388
24.24167	387
24.25000	385
24.25833	383
24.26667	381
24.27500	379
24.28333	377
24.29167	375
24.30000	372
24.30833	370
24.31667	367
24.32500	365
24.33333	363
24.34167	361
24.35000	359
24.35833	357
24.36667	355
24.37500	353
24.38333	351
24.39167	349
24.40000	347
24.40833	345
24.41667	343
24.42500	341
24.43333	340
24.44167	338
24.45000	336
24.45833	335
24.46667	334
24.47500	333
24.48333	331
24.49167	330
24.50000	329
24.50833	328
24.51667	327
24.52500	325
24.53333	325
24.54167	324
24.55000	324
24.55833	323
24.56667	323
24.57500	322
24.58333	322
24.59167	321
24.60000	321
24.60833	321
24.61667	321
24.62500	321
24.63333	321
24.64167	321
24.65000	320
24.65833	320
24.66667	320
24.67500	320
24.68333	320
24.69167	321
24.70000	321
24.70833	320
24.71667	321
24.72500	321
24.73333	322
24.74167	322
24.75000	322
24.75833	323
24.76667	323
24.77500	324
24.78333	324
24.79167	323
24.80000	323
24.80833	323
24.81667	323
24.82500	324
24.83333	324
24.84167	324
24.85000	325
24.85833	325
24.86667	325
24.87500	325
24.88333	325
24.89167	325
24.90000	325
24.90833	325
24.91667	325
24.92500	324
24.93333	324
24.94167	324
24.95000	323
24.95833	323
24.96667	323
24.97500	323
24.98333	322
24.99167	323
25.00000	323
25.00833	323
25.01667	323
25.02500	323
25.03333	323
25.04167	323
25.05000	322
25.05833	322
25.06667	321
25.07500	321
25.08333	321
25.09167	320
25.10000	320
25.10833	320
25.11667	320
25.12500	320
25.13333	319
25.14167	319
25.15000	319
25.15833	319
25.16667	318
25.17500	318
25.18333	318
25.19167	317
25.20000	317
25.20833	317
25.21667	316
25.22500	316
25.23333	316
25.24167	315
25.25000	315
25.25833	314
25.26667	314
25.27500	313
25.28333	313
25.29167	313
25.30000	312
25.30833	312
25.31667	311
25.32500	311
25.33333	310
25.34167	310
25.35000	310
25.35833	310
25.36667	310
25.37500	310
25.38333	310
25.39167	309
25.40000	309
25.40833	309
25.41667	309
25.42500	309
25.43333	309
25.44167	310
25.45000	310
25.45833	310
25.46667	310
25.47500	309
25.48333	309
25.49167	309
25.50000	309
25.50833	309
25.51667	309
25.52500	309
25.53333	309
25.54167	310
25.55000	310
25.55833	310
25.56667	310
25.57500	310
25.58333	310
25.59167	310
25.60000	311
25.60833	311
25.61667	312
25.62500	312
25.63333	313
25.64167	313
25.65000	313
25.65833	314
25.66667	314
25.67500	315
25.68333	316
25.69167	317
25.70000	317
25.70833	318
25.71667	319
25.72500	319
25.73333	319
25.74167	319
25.75000	320
25.75833	320
25.76667	321
25.77500	322
25.78333	324
25.79167	324
25.80000	325
25.80833	326
25.81667	326
25.82500	327
25.83333	328
25.84167	329
25.85000	330
25.85833	331
25.86667	333
25.87500	334
25.88333	336
25.89167	338
25.90000	340
25.90833	342
25.91667	344
25.92500	346
25.93333	349
25.94167	351
25.95000	354
25.95833	357
25.96667	360
25.97500	364
25.98333	368
25.99167	371
26.00000	375
26.00833	380
26.01667	384
26.02500	389
26.03333	395
26.04167	401
26.05000	407
26.05833	414
26.06667	421
26.07500	429
26.08333	437
26.09167	446
26.10000	456
26.10833	466
26.11667	476
26.12500	487
26.13333	499
26.14167	512
26.15000	526
26.15833	541
26.16667	556
26.17500	572
26.18333	590
26.19167	608
26.20000	627
26.20833	646
26.21667	667
26.22500	689
26.23333	712
26.24167	736
26.25000	762
26.25833	788
26.26667	816
26.27500	844
26.28333	874
26.29167	903
26.30000	934
26.30833	966
26.31667	998
26.32500	1031
26.33333	1065
26.34167	1099
26.35000	1133
26.35833	1168
26.36667	1203
26.37500	1238
26.38333	1273
26.39167	1306
26.40000	1340
26.40833	1373
26.41667	1405
26.42500	1436
26.43333	1466
26.44167	1495
26.45000	1522
26.45833	1548
26.46667	1572
26.47500	1594
26.48333	1614
26.49167	1631
26.50000	1647
26.50833	1660
26.51667	1671
26.52500	1679
26.53333	1685
26.54167	1688
26.55000	1688
26.55833	1686
26.56667	1682
26.57500	1675
26.58333	1666
26.59167	1654
26.60000	1639
26.60833	1623
26.61667	1605
26.62500	1584
26.63333	1562
26.64167	1538
26.65000	1512
26.65833	1485
26.66667	1457
26.67500	1427
26.68333	1397
26.69167	1366
26.70000	1334
26.70833	1301
26.71667	1268
26.72500	1234
26.73333	1200
26.74167	1166
26.75000	1131
26.75833	1098
26.76667	1064
26.77500	1031
26.78333	999
26.79167	967
26.80000	935
26.80833	904
26.81667	874
26.82500	845
26.83333	817
26.84167	790
26.85000	764
26.85833	739
26.86667	715
26.87500	691
26.88333	669
26.89167	647
26.90000	626
26.90833	606
26.91667	587
26.92500	569
26.93333	551
26.94167	535
26.95000	519
26.95833	504
26.96667	490
26.97500	476
26.98333	463
26.99167	450
27.00000	439
27.00833	427
27.01667	415
27.02500	404
27.03333	394
27.04167	384
27.05000	375
27.05833	366
27.06667	358
27.07500	350
27.08333	342
27.09167	335
27.10000	327
27.10833	320
27.11667	313
27.12500	307
27.13333	300
27.14167	294
27.15000	288
27.15833	282
27.16667	276
27.17500	271
27.18333	265
27.19167	260
27.20000	255
27.20833	251
27.21667	246
27.22500	242
27.23333	237
27.24167	233
27.25000	229
27.25833	225
27.26667	221
27.27500	217
27.28333	214
27.29167	210
27.30000	207
27.30833	203
27.31667	200
27.32500	197
27.33333	194
27.34167	191
27.35000	188
27.35833	186
27.36667	183
27.37500	181
27.38333	178
27.39167	176
27.40000	173
27.40833	170
27.41667	168
27.42500	165
27.43333	163
27.44167	161
27.45000	159
27.45833	157
27.46667	155
27.47500	153
27.48333	151
27.49167	149
27.50000	147
27.50833	145
27.51667	143
27.52500	141
27.53333	139
27.54167	137
27.55000	136
27.55833	134
27.56667	133
27.57500	132
27.58333	130
27.59167	129
27.60000	128
27.60833	126
27.61667	125
27.62500	124
27.63333	123
27.64167	122
27.65000	120
27.65833	119
27.66667	118
27.67500	116
27.68333	115
27.69167	114
27.70000	113
27.70833	113
27.71667	111
27.72500	110
27.73333	108
27.74167	107
27.75000	107
27.75833	106
27.76667	105
27.77500	104
27.78333	104
27.79167	103
27.80000	102
27.80833	101
27.81667	100
27.82500	99
27.83333	99
27.84167	98
27.85000	98
27.85833	98
27.86667	97
27.87500	96
27.88333	96
27.89167	96
27.90000	95
27.90833	95
27.91667	94
27.92500	94
27.93333	93
27.94167	93
27.95000	92
27.95833	91
27.96667	91
27.97500	90
27.98333	90
27.99167	89
28.00000	89

