R.Time (min)	Intensity
0.00000	-53
0.00833	-53
0.01667	-32
0.02500	-0
0.03333	-1
0.04167	-1
0.05000	-2
0.05833	-3
0.06667	-4
0.07500	-5
0.08333	-5
0.09167	-6
0.10000	-6
0.10833	-6
0.11667	-7
0.12500	-7
0.13333	-7
0.14167	-8
0.15000	-8
0.15833	-9
0.16667	-9
0.17500	-9
0.18333	-10
0.19167	-10
0.20000	-10
0.20833	-11
0.21667	-11
0.22500	-12
0.23333	-13
0.24167	-13
0.25000	-14
0.25833	-14
0.26667	-15
0.27500	-16
0.28333	-17
0.29167	-18
0.30000	-19
0.30833	-20
0.31667	-21
0.32500	-22
0.33333	-22
0.34167	-23
0.35000	-23
0.35833	-24
0.36667	-24
0.37500	-25
0.38333	-26
0.39167	-27
0.40000	-28
0.40833	-28
0.41667	-29
0.42500	-29
0.43333	-30
0.44167	-30
0.45000	-30
0.45833	-31
0.46667	-32
0.47500	-33
0.48333	-33
0.49167	-34
0.50000	-34
0.50833	-35
0.51667	-36
0.52500	-36
0.53333	-37
0.54167	-38
0.55000	-38
0.55833	-38
0.56667	-39
0.57500	-40
0.58333	-40
0.59167	-41
0.60000	-41
0.60833	-41
0.61667	-42
0.62500	-42
0.63333	-43
0.64167	-43
0.65000	-43
0.65833	-44
0.66667	-45
0.67500	-45
0.68333	-45
0.69167	-46
0.70000	-47
0.70833	-47
0.71667	-47
0.72500	-48
0.73333	-48
0.74167	-49
0.75000	-49
0.75833	-50
0.76667	-50
0.77500	-50
0.78333	-50
0.79167	-51
0.80000	-52
0.80833	-52
0.81667	-53
0.82500	-53
0.83333	-54
0.84167	-54
0.85000	-55
0.85833	-55
0.86667	-56
0.87500	-56
0.88333	-57
0.89167	-58
0.90000	-58
0.90833	-58
0.91667	-59
0.92500	-59
0.93333	-60
0.94167	-61
0.95000	-61
0.95833	-62
0.96667	-62
0.97500	-63
0.98333	-63
0.99167	-64
1.00000	-64
1.00833	-64
1.01667	-65
1.02500	-65
1.03333	-66
1.04167	-66
1.05000	-67
1.05833	-67
1.06667	-68
1.07500	-68
1.08333	-69
1.09167	-69
1.10000	-70
1.10833	-70
1.11667	-71
1.12500	-71
1.13333	-72
1.14167	-72
1.15000	-72
1.15833	-73
1.16667	-74
1.17500	-74
1.18333	-75
1.19167	-75
1.20000	-76
1.20833	-76
1.21667	-77
1.22500	-77
1.23333	-78
1.24167	-79
1.25000	-79
1.25833	-80
1.26667	-80
1.27500	-80
1.28333	-80
1.29167	-81
1.30000	-81
1.30833	-81
1.31667	-81
1.32500	-82
1.33333	-82
1.34167	-82
1.35000	-82
1.35833	-83
1.36667	-83
1.37500	-83
1.38333	-84
1.39167	-84
1.40000	-84
1.40833	-84
1.41667	-85
1.42500	-85
1.43333	-86
1.44167	-86
1.45000	-86
1.45833	-86
1.46667	-87
1.47500	-87
1.48333	-87
1.49167	-87
1.50000	-87
1.50833	-88
1.51667	-87
1.52500	-88
1.53333	-88
1.54167	-88
1.55000	-88
1.55833	-88
1.56667	-88
1.57500	-89
1.58333	-89
1.59167	-89
1.60000	-90
1.60833	-90
1.61667	-90
1.62500	-91
1.63333	-91
1.64167	-91
1.65000	-92
1.65833	-92
1.66667	-92
1.67500	-93
1.68333	-94
1.69167	-94
1.70000	-94
1.70833	-94
1.71667	-95
1.72500	-95
1.73333	-95
1.74167	-95
1.75000	-95
1.75833	-96
1.76667	-96
1.77500	-96
1.78333	-96
1.79167	-97
1.80000	-97
1.80833	-97
1.81667	-98
1.82500	-98
1.83333	-99
1.84167	-99
1.85000	-100
1.85833	-100
1.86667	-100
1.87500	-101
1.88333	-101
1.89167	-101
1.90000	-101
1.90833	-101
1.91667	-101
1.92500	-102
1.93333	-103
1.94167	-103
1.95000	-104
1.95833	-104
1.96667	-104
1.97500	-104
1.98333	-104
1.99167	-105
2.00000	-105
2.00833	-105
2.01667	-105
2.02500	-105
2.03333	-105
2.04167	-105
2.05000	-105
2.05833	-106
2.06667	-106
2.07500	-107
2.08333	-107
2.09167	-107
2.10000	-107
2.10833	-106
2.11667	-107
2.12500	-107
2.13333	-107
2.14167	-107
2.15000	-107
2.15833	-107
2.16667	-107
2.17500	-107
2.18333	-106
2.19167	-106
2.20000	-106
2.20833	-106
2.21667	-106
2.22500	-106
2.23333	-105
2.24167	-105
2.25000	-105
2.25833	-104
2.26667	-104
2.27500	-104
2.28333	-103
2.29167	-102
2.30000	-102
2.30833	-101
2.31667	-100
2.32500	-100
2.33333	-99
2.34167	-98
2.35000	-97
2.35833	-96
2.36667	-94
2.37500	-93
2.38333	-91
2.39167	-90
2.40000	-88
2.40833	-87
2.41667	-85
2.42500	-83
2.43333	-81
2.44167	-79
2.45000	-76
2.45833	-74
2.46667	-71
2.47500	-68
2.48333	-66
2.49167	-63
2.50000	-60
2.50833	-56
2.51667	-52
2.52500	-48
2.53333	-43
2.54167	-38
2.55000	-34
2.55833	-29
2.56667	-23
2.57500	-18
2.58333	-12
2.59167	-6
2.60000	1
2.60833	8
2.61667	15
2.62500	23
2.63333	31
2.64167	40
2.65000	50
2.65833	59
2.66667	70
2.67500	81
2.68333	92
2.69167	104
2.70000	117
2.70833	130
2.71667	145
2.72500	159
2.73333	175
2.74167	191
2.75000	208
2.75833	226
2.76667	245
2.77500	265
2.78333	286
2.79167	309
2.80000	332
2.80833	357
2.81667	383
2.82500	411
2.83333	440
2.84167	470
2.85000	502
2.85833	535
2.86667	570
2.87500	606
2.88333	644
2.89167	685
2.90000	727
2.90833	771
2.91667	817
2.92500	866
2.93333	917
2.94167	969
2.95000	1024
2.95833	1081
2.96667	1141
2.97500	1203
2.98333	1267
2.99167	1334
3.00000	1403
3.00833	1475
3.01667	1549
3.02500	1625
3.03333	1704
3.04167	1785
3.05000	1868
3.05833	1953
3.06667	2040
3.07500	2128
3.08333	2218
3.09167	2310
3.10000	2403
3.10833	2498
3.11667	2592
3.12500	2688
3.13333	2784
3.14167	2880
3.15000	2976
3.15833	3071
3.16667	3166
3.17500	3259
3.18333	3351
3.19167	3442
3.20000	3530
3.20833	3616
3.21667	3700
3.22500	3781
3.23333	3857
3.24167	3931
3.25000	4000
3.25833	4066
3.26667	4127
3.27500	4183
3.28333	4235
3.29167	4281
3.30000	4322
3.30833	4357
3.31667	4387
3.32500	4411
3.33333	4429
3.34167	4440
3.35000	4446
3.35833	4446
3.36667	4440
3.37500	4427
3.38333	4409
3.39167	4385
3.40000	4355
3.40833	4319
3.41667	4277
3.42500	4230
3.43333	4179
3.44167	4122
3.45000	4061
3.45833	3996
3.46667	3926
3.47500	3852
3.48333	3776
3.49167	3696
3.50000	3613
3.50833	3527
3.51667	3438
3.52500	3348
3.53333	3257
3.54167	3164
3.55000	3070
3.55833	2974
3.56667	2879
3.57500	2783
3.58333	2687
3.59167	2591
3.60000	2496
3.60833	2402
3.61667	2309
3.62500	2217
3.63333	2126
3.64167	2036
3.65000	1949
3.65833	1863
3.66667	1779
3.67500	1698
3.68333	1618
3.69167	1541
3.70000	1465
3.70833	1392
3.71667	1322
3.72500	1254
3.73333	1189
3.74167	1126
3.75000	1066
3.75833	1007
3.76667	952
3.77500	899
3.78333	848
3.79167	800
3.80000	754
3.80833	710
3.81667	669
3.82500	630
3.83333	593
3.84167	557
3.85000	524
3.85833	492
3.86667	462
3.87500	434
3.88333	407
3.89167	382
3.90000	359
3.90833	337
3.91667	316
3.92500	297
3.93333	279
3.94167	262
3.95000	247
3.95833	232
3.96667	218
3.97500	205
3.98333	193
3.99167	182
4.00000	172
4.00833	162
4.01667	153
4.02500	144
4.03333	136
4.04167	129
4.05000	122
4.05833	114
4.06667	108
4.07500	101
4.08333	96
4.09167	90
4.10000	84
4.10833	79
4.11667	74
4.12500	69
4.13333	64
4.14167	59
4.15000	55
4.15833	50
4.16667	45
4.17500	41
4.18333	36
4.19167	32
4.20000	27
4.20833	23
4.21667	19
4.22500	15
4.23333	10
4.24167	6
4.25000	2
4.25833	-2
4.26667	-6
4.27500	-10
4.28333	-14
4.29167	-18
4.30000	-22
4.30833	-26
4.31667	-30
4.32500	-33
4.33333	-37
4.34167	-41
4.35000	-44
4.35833	-47
4.36667	-50
4.37500	-53
4.38333	-56
4.39167	-59
4.40000	-62
4.40833	-65
4.41667	-67
4.42500	-70
4.43333	-73
4.44167	-75
4.45000	-78
4.45833	-80
4.46667	-82
4.47500	-83
4.48333	-85
4.49167	-86
4.50000	-88
4.50833	-89
4.51667	-90
4.52500	-91
4.53333	-92
4.54167	-94
4.55000	-95
4.55833	-95
4.56667	-96
4.57500	-97
4.58333	-97
4.59167	-98
4.60000	-98
4.60833	-98
4.61667	-98
4.62500	-98
4.63333	-98
4.64167	-97
4.65000	-97
4.65833	-97
4.66667	-96
4.67500	-96
4.68333	-95
4.69167	-95
4.70000	-95
4.70833	-95
4.71667	-94
4.72500	-93
4.73333	-93
4.74167	-92
4.75000	-91
4.75833	-90
4.76667	-89
4.77500	-89
4.78333	-89
4.79167	-89
4.80000	-88
4.80833	-88
4.81667	-87
4.82500	-86
4.83333	-85
4.84167	-84
4.85000	-84
4.85833	-83
4.86667	-83
4.87500	-82
4.88333	-82
4.89167	-81
4.90000	-81
4.90833	-80
4.91667	-80
4.92500	-79
4.93333	-78
4.94167	-78
4.95000	-77
4.95833	-76
4.96667	-76
4.97500	-75
4.98333	-75
4.99167	-74
5.00000	-74
5.00833	-74
5.01667	-74
5.02500	-74
5.03333	-73
5.04167	-73
5.05000	-72
5.05833	-72
5.06667	-72
5.07500	-71
5.08333	-71
5.09167	-71
5.10000	-70
5.10833	-71
5.11667	-71
5.12500	-71
5.13333	-71
5.14167	-71
5.15000	-71
5.15833	-71
5.16667	-71
5.17500	-72
5.18333	-72
5.19167	-73
5.20000	-74
5.20833	-75
5.21667	-75
5.22500	-76
5.23333	-76
5.24167	-77
5.25000	-77
5.25833	-77
5.26667	-78
5.27500	-78
5.28333	-79
5.29167	-79
5.30000	-80
5.30833	-80
5.31667	-80
5.32500	-81
5.33333	-82
5.34167	-82
5.35000	-83
5.35833	-83
5.36667	-83
5.37500	-84
5.38333	-85
5.39167	-86
5.40000	-87
5.40833	-88
5.41667	-88
5.42500	-89
5.43333	-90
5.44167	-91
5.45000	-91
5.45833	-92
5.46667	-93
5.47500	-93
5.48333	-94
5.49167	-95
5.50000	-96
5.50833	-97
5.51667	-98
5.52500	-98
5.53333	-98
5.54167	-99
5.55000	-99
5.55833	-100
5.56667	-101
5.57500	-101
5.58333	-102
5.59167	-102
5.60000	-103
5.60833	-104
5.61667	-105
5.62500	-105
5.63333	-105
5.64167	-106
5.65000	-107
5.65833	-107
5.66667	-108
5.67500	-108
5.68333	-109
5.69167	-109
5.70000	-109
5.70833	-110
5.71667	-110
5.72500	-110
5.73333	-110
5.74167	-111
5.75000	-111
5.75833	-111
5.76667	-112
5.77500	-112
5.78333	-112
5.79167	-113
5.80000	-113
5.80833	-114
5.81667	-114
5.82500	-114
5.83333	-114
5.84167	-114
5.85000	-115
5.85833	-115
5.86667	-115
5.87500	-115
5.88333	-115
5.89167	-115
5.90000	-115
5.90833	-115
5.91667	-115
5.92500	-115
5.93333	-115
5.94167	-116
5.95000	-116
5.95833	-116
5.96667	-117
5.97500	-117
5.98333	-117
5.99167	-118
6.00000	-118
6.00833	-118
6.01667	-118
6.02500	-118
6.03333	-118
6.04167	-119
6.05000	-119
6.05833	-120
6.06667	-120
6.07500	-120
6.08333	-120
6.09167	-120
6.10000	-120
6.10833	-120
6.11667	-120
6.12500	-120
6.13333	-120
6.14167	-120
6.15000	-120
6.15833	-120
6.16667	-120
6.17500	-121
6.18333	-121
6.19167	-121
6.20000	-121
6.20833	-121
6.21667	-121
6.22500	-121
6.23333	-121
6.24167	-121
6.25000	-121
6.25833	-121
6.26667	-121
6.27500	-121
6.28333	-121
6.29167	-121
6.30000	-121
6.30833	-121
6.31667	-121
6.32500	-121
6.33333	-121
6.34167	-121
6.35000	-121
6.35833	-121
6.36667	-121
6.37500	-121
6.38333	-121
6.39167	-121
6.40000	-121
6.40833	-122
6.41667	-122
6.42500	-122
6.43333	-122
6.44167	-122
6.45000	-123
6.45833	-123
6.46667	-123
6.47500	-123
6.48333	-123
6.49167	-123
6.50000	-123
6.50833	-123
6.51667	-124
6.52500	-124
6.53333	-124
6.54167	-124
6.55000	-124
6.55833	-124
6.56667	-125
6.57500	-125
6.58333	-125
6.59167	-125
6.60000	-125
6.60833	-125
6.61667	-125
6.62500	-124
6.63333	-124
6.64167	-125
6.65000	-125
6.65833	-126
6.66667	-126
6.67500	-126
6.68333	-126
6.69167	-126
6.70000	-126
6.70833	-125
6.71667	-125
6.72500	-125
6.73333	-125
6.74167	-125
6.75000	-125
6.75833	-125
6.76667	-125
6.77500	-125
6.78333	-126
6.79167	-126
6.80000	-126
6.80833	-126
6.81667	-126
6.82500	-126
6.83333	-126
6.84167	-127
6.85000	-127
6.85833	-127
6.86667	-127
6.87500	-127
6.88333	-127
6.89167	-127
6.90000	-127
6.90833	-127
6.91667	-127
6.92500	-126
6.93333	-125
6.94167	-125
6.95000	-125
6.95833	-124
6.96667	-124
6.97500	-124
6.98333	-124
6.99167	-123
7.00000	-123
7.00833	-123
7.01667	-122
7.02500	-122
7.03333	-121
7.04167	-119
7.05000	-118
7.05833	-117
7.06667	-116
7.07500	-114
7.08333	-111
7.09167	-107
7.10000	-103
7.10833	-99
7.11667	-93
7.12500	-87
7.13333	-79
7.14167	-69
7.15000	-58
7.15833	-46
7.16667	-32
7.17500	-16
7.18333	2
7.19167	21
7.20000	42
7.20833	65
7.21667	90
7.22500	115
7.23333	143
7.24167	170
7.25000	198
7.25833	226
7.26667	251
7.27500	274
7.28333	291
7.29167	302
7.30000	305
7.30833	299
7.31667	283
7.32500	260
7.33333	233
7.34167	208
7.35000	194
7.35833	204
7.36667	252
7.37500	356
7.38333	533
7.39167	805
7.40000	1188
7.40833	1702
7.41667	2358
7.42500	3168
7.43333	4136
7.44167	5260
7.45000	6530
7.45833	7928
7.46667	9426
7.47500	10987
7.48333	12565
7.49167	14103
7.50000	15543
7.50833	16820
7.51667	17875
7.52500	18657
7.53333	19129
7.54167	19272
7.55000	19085
7.55833	18590
7.56667	17824
7.57500	16838
7.58333	15689
7.59167	14437
7.60000	13138
7.60833	11843
7.61667	10592
7.62500	9416
7.63333	8336
7.64167	7362
7.65000	6500
7.65833	5747
7.66667	5095
7.67500	4536
7.68333	4059
7.69167	3653
7.70000	3306
7.70833	3011
7.71667	2756
7.72500	2536
7.73333	2344
7.74167	2175
7.75000	2025
7.75833	1890
7.76667	1768
7.77500	1656
7.78333	1554
7.79167	1459
7.80000	1372
7.80833	1290
7.81667	1215
7.82500	1143
7.83333	1076
7.84167	1013
7.85000	953
7.85833	896
7.86667	842
7.87500	790
7.88333	740
7.89167	694
7.90000	650
7.90833	609
7.91667	570
7.92500	534
7.93333	500
7.94167	469
7.95000	441
7.95833	416
7.96667	394
7.97500	375
7.98333	358
7.99167	344
8.00000	332
8.00833	322
8.01667	313
8.02500	305
8.03333	299
8.04167	293
8.05000	287
8.05833	281
8.06667	274
8.07500	267
8.08333	260
8.09167	252
8.10000	244
8.10833	237
8.11667	229
8.12500	220
8.13333	212
8.14167	204
8.15000	196
8.15833	188
8.16667	181
8.17500	173
8.18333	167
8.19167	160
8.20000	154
8.20833	149
8.21667	144
8.22500	139
8.23333	135
8.24167	131
8.25000	127
8.25833	124
8.26667	121
8.27500	118
8.28333	116
8.29167	114
8.30000	112
8.30833	111
8.31667	109
8.32500	108
8.33333	107
8.34167	105
8.35000	104
8.35833	103
8.36667	102
8.37500	102
8.38333	101
8.39167	100
8.40000	98
8.40833	97
8.41667	95
8.42500	95
8.43333	94
8.44167	92
8.45000	91
8.45833	89
8.46667	87
8.47500	86
8.48333	84
8.49167	82
8.50000	81
8.50833	79
8.51667	77
8.52500	75
8.53333	73
8.54167	71
8.55000	70
8.55833	68
8.56667	67
8.57500	66
8.58333	65
8.59167	64
8.60000	63
8.60833	62
8.61667	62
8.62500	62
8.63333	62
8.64167	63
8.65000	63
8.65833	64
8.66667	65
8.67500	66
8.68333	69
8.69167	71
8.70000	74
8.70833	76
8.71667	79
8.72500	83
8.73333	86
8.74167	90
8.75000	93
8.75833	97
8.76667	102
8.77500	106
8.78333	110
8.79167	115
8.80000	121
8.80833	127
8.81667	133
8.82500	140
8.83333	148
8.84167	157
8.85000	168
8.85833	181
8.86667	198
8.87500	217
8.88333	241
8.89167	269
8.90000	303
8.90833	343
8.91667	390
8.92500	445
8.93333	509
8.94167	581
8.95000	662
8.95833	752
8.96667	852
8.97500	959
8.98333	1072
8.99167	1191
9.00000	1314
9.00833	1438
9.01667	1561
9.02500	1682
9.03333	1796
9.04167	1902
9.05000	1998
9.05833	2080
9.06667	2149
9.07500	2202
9.08333	2239
9.09167	2259
9.10000	2262
9.10833	2248
9.11667	2218
9.12500	2174
9.13333	2116
9.14167	2048
9.15000	1969
9.15833	1883
9.16667	1792
9.17500	1696
9.18333	1599
9.19167	1500
9.20000	1403
9.20833	1309
9.21667	1217
9.22500	1130
9.23333	1048
9.24167	971
9.25000	900
9.25833	835
9.26667	775
9.27500	721
9.28333	672
9.29167	629
9.30000	591
9.30833	558
9.31667	529
9.32500	504
9.33333	482
9.34167	464
9.35000	450
9.35833	439
9.36667	432
9.37500	429
9.38333	429
9.39167	434
9.40000	443
9.40833	457
9.41667	478
9.42500	506
9.43333	543
9.44167	592
9.45000	653
9.45833	730
9.46667	826
9.47500	945
9.48333	1090
9.49167	1267
9.50000	1480
9.50833	1735
9.51667	2038
9.52500	2392
9.53333	2804
9.54167	3277
9.55000	3814
9.55833	4416
9.56667	5086
9.57500	5821
9.58333	6618
9.59167	7472
9.60000	8375
9.60833	9317
9.61667	10288
9.62500	11275
9.63333	12264
9.64167	13240
9.65000	14188
9.65833	15090
9.66667	15935
9.67500	16707
9.68333	17396
9.69167	17992
9.70000	18488
9.70833	18879
9.71667	19165
9.72500	19345
9.73333	19425
9.74167	19410
9.75000	19308
9.75833	19130
9.76667	18888
9.77500	18593
9.78333	18260
9.79167	17899
9.80000	17525
9.80833	17149
9.81667	16783
9.82500	16435
9.83333	16115
9.84167	15832
9.85000	15589
9.85833	15392
9.86667	15244
9.87500	15148
9.88333	15106
9.89167	15116
9.90000	15180
9.90833	15295
9.91667	15460
9.92500	15672
9.93333	15929
9.94167	16227
9.95000	16564
9.95833	16936
9.96667	17341
9.97500	17774
9.98333	18233
9.99167	18714
10.00000	19213
10.00833	19727
10.01667	20252
10.02500	20782
10.03333	21310
10.04167	21826
10.05000	22315
10.05833	22757
10.06667	23123
10.07500	23379
10.08333	23487
10.09167	23410
10.10000	23113
10.10833	22576
10.11667	21790
10.12500	20768
10.13333	19539
10.14167	18147
10.15000	16643
10.15833	15085
10.16667	13525
10.17500	12010
10.18333	10576
10.19167	9252
10.20000	8051
10.20833	6981
10.21667	6040
10.22500	5224
10.23333	4522
10.24167	3923
10.25000	3415
10.25833	2987
10.26667	2625
10.27500	2321
10.28333	2064
10.29167	1847
10.30000	1663
10.30833	1506
10.31667	1371
10.32500	1255
10.33333	1154
10.34167	1065
10.35000	987
10.35833	917
10.36667	853
10.37500	796
10.38333	744
10.39167	696
10.40000	652
10.40833	611
10.41667	573
10.42500	538
10.43333	506
10.44167	477
10.45000	450
10.45833	425
10.46667	402
10.47500	382
10.48333	364
10.49167	349
10.50000	337
10.50833	326
10.51667	318
10.52500	312
10.53333	307
10.54167	305
10.55000	304
10.55833	304
10.56667	306
10.57500	308
10.58333	310
10.59167	312
10.60000	314
10.60833	316
10.61667	317
10.62500	318
10.63333	317
10.64167	315
10.65000	312
10.65833	308
10.66667	303
10.67500	296
10.68333	289
10.69167	280
10.70000	271
10.70833	261
10.71667	251
10.72500	242
10.73333	233
10.74167	225
10.75000	217
10.75833	211
10.76667	206
10.77500	203
10.78333	201
10.79167	201
10.80000	204
10.80833	207
10.81667	213
10.82500	220
10.83333	228
10.84167	238
10.85000	248
10.85833	258
10.86667	269
10.87500	280
10.88333	290
10.89167	300
10.90000	308
10.90833	315
10.91667	320
10.92500	324
10.93333	325
10.94167	324
10.95000	322
10.95833	317
10.96667	311
10.97500	303
10.98333	293
10.99167	282
11.00000	269
11.00833	256
11.01667	242
11.02500	229
11.03333	215
11.04167	202
11.05000	189
11.05833	176
11.06667	165
11.07500	154
11.08333	144
11.09167	135
11.10000	127
11.10833	120
11.11667	114
11.12500	110
11.13333	107
11.14167	104
11.15000	103
11.15833	103
11.16667	103
11.17500	104
11.18333	106
11.19167	110
11.20000	113
11.20833	117
11.21667	121
11.22500	125
11.23333	130
11.24167	134
11.25000	138
11.25833	142
11.26667	145
11.27500	148
11.28333	151
11.29167	152
11.30000	153
11.30833	153
11.31667	153
11.32500	153
11.33333	151
11.34167	149
11.35000	146
11.35833	144
11.36667	140
11.37500	137
11.38333	133
11.39167	129
11.40000	125
11.40833	120
11.41667	115
11.42500	111
11.43333	106
11.44167	102
11.45000	97
11.45833	93
11.46667	88
11.47500	84
11.48333	80
11.49167	76
11.50000	73
11.50833	69
11.51667	66
11.52500	63
11.53333	61
11.54167	58
11.55000	57
11.55833	55
11.56667	54
11.57500	52
11.58333	51
11.59167	50
11.60000	49
11.60833	48
11.61667	48
11.62500	48
11.63333	48
11.64167	49
11.65000	51
11.65833	53
11.66667	56
11.67500	59
11.68333	62
11.69167	65
11.70000	69
11.70833	73
11.71667	78
11.72500	82
11.73333	87
11.74167	91
11.75000	96
11.75833	100
11.76667	104
11.77500	108
11.78333	111
11.79167	114
11.80000	115
11.80833	116
11.81667	117
11.82500	116
11.83333	114
11.84167	111
11.85000	108
11.85833	104
11.86667	99
11.87500	94
11.88333	88
11.89167	83
11.90000	77
11.90833	71
11.91667	65
11.92500	58
11.93333	52
11.94167	47
11.95000	41
11.95833	36
11.96667	31
11.97500	26
11.98333	21
11.99167	17
12.00000	14
12.00833	11
12.01667	8
12.02500	6
12.03333	4
12.04167	2
12.05000	1
12.05833	0
12.06667	-0
12.07500	-1
12.08333	-1
12.09167	-1
12.10000	-1
12.10833	-1
12.11667	-1
12.12500	-1
12.13333	-1
12.14167	-1
12.15000	-1
12.15833	-1
12.16667	-1
12.17500	-1
12.18333	-2
12.19167	-2
12.20000	-3
12.20833	-3
12.21667	-4
12.22500	-4
12.23333	-5
12.24167	-6
12.25000	-6
12.25833	-7
12.26667	-8
12.27500	-9
12.28333	-11
12.29167	-12
12.30000	-13
12.30833	-15
12.31667	-17
12.32500	-18
12.33333	-20
12.34167	-21
12.35000	-22
12.35833	-24
12.36667	-26
12.37500	-28
12.38333	-30
12.39167	-32
12.40000	-34
12.40833	-36
12.41667	-38
12.42500	-39
12.43333	-41
12.44167	-42
12.45000	-44
12.45833	-45
12.46667	-46
12.47500	-47
12.48333	-47
12.49167	-48
12.50000	-48
12.50833	-49
12.51667	-49
12.52500	-49
12.53333	-49
12.54167	-49
12.55000	-48
12.55833	-48
12.56667	-47
12.57500	-47
12.58333	-46
12.59167	-45
12.60000	-44
12.60833	-43
12.61667	-42
12.62500	-41
12.63333	-39
12.64167	-38
12.65000	-37
12.65833	-35
12.66667	-34
12.67500	-33
12.68333	-31
12.69167	-30
12.70000	-28
12.70833	-27
12.71667	-26
12.72500	-25
12.73333	-25
12.74167	-24
12.75000	-23
12.75833	-22
12.76667	-22
12.77500	-21
12.78333	-21
12.79167	-20
12.80000	-20
12.80833	-20
12.81667	-19
12.82500	-19
12.83333	-18
12.84167	-18
12.85000	-17
12.85833	-17
12.86667	-17
12.87500	-17
12.88333	-16
12.89167	-16
12.90000	-15
12.90833	-15
12.91667	-14
12.92500	-14
12.93333	-13
12.94167	-12
12.95000	-12
12.95833	-11
12.96667	-10
12.97500	-9
12.98333	-8
12.99167	-7
13.00000	-6
13.00833	-5
13.01667	-4
13.02500	-3
13.03333	-3
13.04167	-1
13.05000	-1
13.05833	0
13.06667	1
13.07500	1
13.08333	2
13.09167	3
13.10000	3
13.10833	4
13.11667	4
13.12500	4
13.13333	4
13.14167	4
13.15000	3
13.15833	3
13.16667	3
13.17500	3
13.18333	3
13.19167	2
13.20000	2
13.20833	1
13.21667	1
13.22500	1
13.23333	1
13.24167	0
13.25000	0
13.25833	0
13.26667	0
13.27500	0
13.28333	1
13.29167	1
13.30000	2
13.30833	2
13.31667	3
13.32500	3
13.33333	4
13.34167	4
13.35000	5
13.35833	6
13.36667	7
13.37500	8
13.38333	9
13.39167	11
13.40000	11
13.40833	12
13.41667	13
13.42500	14
13.43333	14
13.44167	16
13.45000	17
13.45833	18
13.46667	20
13.47500	22
13.48333	23
13.49167	25
13.50000	27
13.50833	30
13.51667	32
13.52500	34
13.53333	36
13.54167	39
13.55000	42
13.55833	45
13.56667	49
13.57500	53
13.58333	58
13.59167	64
13.60000	70
13.60833	77
13.61667	84
13.62500	92
13.63333	100
13.64167	109
13.65000	118
13.65833	128
13.66667	138
13.67500	148
13.68333	158
13.69167	168
13.70000	177
13.70833	187
13.71667	196
13.72500	205
13.73333	213
13.74167	221
13.75000	229
13.75833	235
13.76667	241
13.77500	247
13.78333	252
13.79167	257
13.80000	262
13.80833	267
13.81667	271
13.82500	276
13.83333	281
13.84167	286
13.85000	291
13.85833	297
13.86667	303
13.87500	309
13.88333	315
13.89167	321
13.90000	327
13.90833	334
13.91667	340
13.92500	346
13.93333	351
13.94167	356
13.95000	361
13.95833	364
13.96667	367
13.97500	369
13.98333	370
13.99167	370
14.00000	368
14.00833	366
14.01667	362
14.02500	358
14.03333	352
14.04167	346
14.05000	339
14.05833	332
14.06667	324
14.07500	315
14.08333	306
14.09167	297
14.10000	288
14.10833	279
14.11667	271
14.12500	262
14.13333	254
14.14167	247
14.15000	239
14.15833	232
14.16667	226
14.17500	219
14.18333	214
14.19167	209
14.20000	205
14.20833	201
14.21667	198
14.22500	194
14.23333	192
14.24167	190
14.25000	188
14.25833	187
14.26667	186
14.27500	185
14.28333	185
14.29167	184
14.30000	184
14.30833	184
14.31667	185
14.32500	185
14.33333	186
14.34167	187
14.35000	189
14.35833	190
14.36667	191
14.37500	192
14.38333	193
14.39167	195
14.40000	196
14.40833	197
14.41667	199
14.42500	200
14.43333	201
14.44167	203
14.45000	204
14.45833	206
14.46667	207
14.47500	208
14.48333	209
14.49167	211
14.50000	211
14.50833	212
14.51667	213
14.52500	214
14.53333	215
14.54167	215
14.55000	216
14.55833	216
14.56667	216
14.57500	216
14.58333	216
14.59167	216
14.60000	216
14.60833	216
14.61667	216
14.62500	216
14.63333	215
14.64167	215
14.65000	214
14.65833	214
14.66667	213
14.67500	213
14.68333	212
14.69167	212
14.70000	212
14.70833	211
14.71667	210
14.72500	210
14.73333	209
14.74167	209
14.75000	208
14.75833	208
14.76667	208
14.77500	207
14.78333	207
14.79167	207
14.80000	207
14.80833	207
14.81667	207
14.82500	207
14.83333	206
14.84167	206
14.85000	206
14.85833	206
14.86667	206
14.87500	206
14.88333	206
14.89167	206
14.90000	206
14.90833	207
14.91667	207
14.92500	207
14.93333	207
14.94167	208
14.95000	208
14.95833	208
14.96667	209
14.97500	209
14.98333	210
14.99167	211
15.00000	212
15.00833	213
15.01667	214
15.02500	216
15.03333	218
15.04167	221
15.05000	224
15.05833	228
15.06667	232
15.07500	236
15.08333	241
15.09167	248
15.10000	255
15.10833	262
15.11667	271
15.12500	281
15.13333	292
15.14167	303
15.15000	315
15.15833	328
15.16667	341
15.17500	355
15.18333	369
15.19167	383
15.20000	398
15.20833	411
15.21667	425
15.22500	438
15.23333	450
15.24167	461
15.25000	471
15.25833	480
15.26667	486
15.27500	491
15.28333	494
15.29167	495
15.30000	494
15.30833	492
15.31667	488
15.32500	481
15.33333	473
15.34167	464
15.35000	453
15.35833	440
15.36667	426
15.37500	411
15.38333	396
15.39167	380
15.40000	364
15.40833	347
15.41667	331
15.42500	315
15.43333	299
15.44167	283
15.45000	267
15.45833	252
15.46667	238
15.47500	224
15.48333	211
15.49167	198
15.50000	186
15.50833	175
15.51667	164
15.52500	154
15.53333	145
15.54167	136
15.55000	128
15.55833	120
15.56667	113
15.57500	107
15.58333	101
15.59167	96
15.60000	91
15.60833	86
15.61667	82
15.62500	78
15.63333	75
15.64167	71
15.65000	68
15.65833	65
15.66667	62
15.67500	60
15.68333	58
15.69167	56
15.70000	55
15.70833	54
15.71667	53
15.72500	52
15.73333	51
15.74167	51
15.75000	50
15.75833	50
15.76667	50
15.77500	49
15.78333	49
15.79167	48
15.80000	49
15.80833	49
15.81667	50
15.82500	51
15.83333	51
15.84167	52
15.85000	53
15.85833	55
15.86667	56
15.87500	57
15.88333	59
15.89167	61
15.90000	64
15.90833	67
15.91667	71
15.92500	75
15.93333	80
15.94167	86
15.95000	92
15.95833	99
15.96667	106
15.97500	115
15.98333	125
15.99167	135
16.00000	147
16.00833	159
16.01667	172
16.02500	185
16.03333	199
16.04167	214
16.05000	229
16.05833	244
16.06667	259
16.07500	275
16.08333	290
16.09167	304
16.10000	317
16.10833	330
16.11667	341
16.12500	352
16.13333	360
16.14167	368
16.15000	373
16.15833	378
16.16667	382
16.17500	383
16.18333	383
16.19167	381
16.20000	377
16.20833	372
16.21667	366
16.22500	359
16.23333	351
16.24167	343
16.25000	334
16.25833	325
16.26667	315
16.27500	306
16.28333	297
16.29167	289
16.30000	281
16.30833	273
16.31667	267
16.32500	261
16.33333	257
16.34167	254
16.35000	251
16.35833	250
16.36667	250
16.37500	251
16.38333	254
16.39167	259
16.40000	264
16.40833	272
16.41667	280
16.42500	290
16.43333	301
16.44167	313
16.45000	328
16.45833	344
16.46667	361
16.47500	380
16.48333	400
16.49167	422
16.50000	445
16.50833	469
16.51667	495
16.52500	521
16.53333	549
16.54167	576
16.55000	604
16.55833	632
16.56667	660
16.57500	688
16.58333	715
16.59167	741
16.60000	766
16.60833	789
16.61667	810
16.62500	828
16.63333	844
16.64167	857
16.65000	868
16.65833	875
16.66667	879
16.67500	879
16.68333	876
16.69167	869
16.70000	860
16.70833	847
16.71667	831
16.72500	813
16.73333	793
16.74167	770
16.75000	745
16.75833	719
16.76667	691
16.77500	662
16.78333	633
16.79167	603
16.80000	572
16.80833	542
16.81667	512
16.82500	483
16.83333	454
16.84167	426
16.85000	399
16.85833	373
16.86667	349
16.87500	325
16.88333	303
16.89167	282
16.90000	262
16.90833	244
16.91667	226
16.92500	211
16.93333	196
16.94167	182
16.95000	170
16.95833	158
16.96667	148
16.97500	138
16.98333	128
16.99167	120
17.00000	112
17.00833	104
17.01667	98
17.02500	91
17.03333	85
17.04167	81
17.05000	76
17.05833	72
17.06667	68
17.07500	64
17.08333	60
17.09167	57
17.10000	54
17.10833	51
17.11667	48
17.12500	45
17.13333	43
17.14167	41
17.15000	39
17.15833	37
17.16667	35
17.17500	33
17.18333	31
17.19167	30
17.20000	29
17.20833	28
17.21667	27
17.22500	26
17.23333	25
17.24167	24
17.25000	23
17.25833	22
17.26667	22
17.27500	21
17.28333	20
17.29167	19
17.30000	19
17.30833	18
17.31667	18
17.32500	18
17.33333	17
17.34167	17
17.35000	17
17.35833	17
17.36667	18
17.37500	18
17.38333	18
17.39167	17
17.40000	17
17.40833	17
17.41667	17
17.42500	17
17.43333	18
17.44167	18
17.45000	19
17.45833	20
17.46667	21
17.47500	22
17.48333	23
17.49167	24
17.50000	24
17.50833	25
17.51667	26
17.52500	27
17.53333	28
17.54167	30
17.55000	31
17.55833	33
17.56667	34
17.57500	36
17.58333	39
17.59167	41
17.60000	44
17.60833	47
17.61667	50
17.62500	53
17.63333	57
17.64167	61
17.65000	66
17.65833	71
17.66667	76
17.67500	82
17.68333	88
17.69167	95
17.70000	103
17.70833	111
17.71667	120
17.72500	130
17.73333	142
17.74167	154
17.75000	168
17.75833	182
17.76667	198
17.77500	215
17.78333	234
17.79167	256
17.80000	280
17.80833	306
17.81667	334
17.82500	366
17.83333	401
17.84167	439
17.85000	481
17.85833	528
17.86667	578
17.87500	634
17.88333	695
17.89167	762
17.90000	834
17.90833	913
17.91667	999
17.92500	1091
17.93333	1190
17.94167	1297
17.95000	1410
17.95833	1531
17.96667	1658
17.97500	1790
17.98333	1929
17.99167	2073
18.00000	2221
18.00833	2372
18.01667	2526
18.02500	2680
18.03333	2835
18.04167	2988
18.05000	3138
18.05833	3283
18.06667	3422
18.07500	3554
18.08333	3676
18.09167	3789
18.10000	3889
18.10833	3977
18.11667	4052
18.12500	4111
18.13333	4155
18.14167	4184
18.15000	4196
18.15833	4193
18.16667	4173
18.17500	4138
18.18333	4089
18.19167	4025
18.20000	3949
18.20833	3860
18.21667	3761
18.22500	3652
18.23333	3535
18.24167	3411
18.25000	3281
18.25833	3147
18.26667	3009
18.27500	2870
18.28333	2730
18.29167	2591
18.30000	2453
18.30833	2317
18.31667	2185
18.32500	2056
18.33333	1931
18.34167	1811
18.35000	1696
18.35833	1586
18.36667	1483
18.37500	1385
18.38333	1292
18.39167	1206
18.40000	1124
18.40833	1048
18.41667	976
18.42500	910
18.43333	849
18.44167	792
18.45000	739
18.45833	691
18.46667	646
18.47500	605
18.48333	568
18.49167	533
18.50000	502
18.50833	473
18.51667	446
18.52500	422
18.53333	400
18.54167	379
18.55000	360
18.55833	343
18.56667	328
18.57500	314
18.58333	302
18.59167	291
18.60000	281
18.60833	272
18.61667	265
18.62500	259
18.63333	253
18.64167	249
18.65000	246
18.65833	243
18.66667	242
18.67500	241
18.68333	241
18.69167	242
18.70000	243
18.70833	246
18.71667	249
18.72500	254
18.73333	259
18.74167	265
18.75000	271
18.75833	278
18.76667	286
18.77500	294
18.78333	302
18.79167	312
18.80000	321
18.80833	331
18.81667	341
18.82500	350
18.83333	360
18.84167	370
18.85000	379
18.85833	388
18.86667	397
18.87500	405
18.88333	412
18.89167	418
18.90000	424
18.90833	429
18.91667	433
18.92500	437
18.93333	439
18.94167	440
18.95000	440
18.95833	439
18.96667	437
18.97500	435
18.98333	431
18.99167	427
19.00000	422
19.00833	416
19.01667	409
19.02500	402
19.03333	394
19.04167	386
19.05000	378
19.05833	368
19.06667	359
19.07500	350
19.08333	340
19.09167	330
19.10000	321
19.10833	312
19.11667	302
19.12500	293
19.13333	285
19.14167	276
19.15000	268
19.15833	260
19.16667	252
19.17500	245
19.18333	238
19.19167	232
19.20000	226
19.20833	221
19.21667	216
19.22500	211
19.23333	206
19.24167	202
19.25000	198
19.25833	195
19.26667	191
19.27500	189
19.28333	187
19.29167	185
19.30000	183
19.30833	181
19.31667	180
19.32500	178
19.33333	177
19.34167	176
19.35000	175
19.35833	175
19.36667	174
19.37500	174
19.38333	174
19.39167	175
19.40000	175
19.40833	175
19.41667	175
19.42500	176
19.43333	176
19.44167	177
19.45000	178
19.45833	178
19.46667	179
19.47500	180
19.48333	181
19.49167	182
19.50000	183
19.50833	183
19.51667	184
19.52500	185
19.53333	185
19.54167	186
19.55000	187
19.55833	188
19.56667	188
19.57500	189
19.58333	190
19.59167	191
19.60000	192
19.60833	192
19.61667	193
19.62500	194
19.63333	195
19.64167	195
19.65000	196
19.65833	196
19.66667	197
19.67500	197
19.68333	198
19.69167	198
19.70000	199
19.70833	200
19.71667	200
19.72500	201
19.73333	203
19.74167	204
19.75000	205
19.75833	205
19.76667	206
19.77500	206
19.78333	207
19.79167	207
19.80000	208
19.80833	208
19.81667	208
19.82500	209
19.83333	209
19.84167	209
19.85000	210
19.85833	210
19.86667	211
19.87500	211
19.88333	212
19.89167	212
19.90000	212
19.90833	212
19.91667	212
19.92500	212
19.93333	212
19.94167	213
19.95000	213
19.95833	214
19.96667	214
19.97500	215
19.98333	215
19.99167	216
20.00000	216
20.00833	216
20.01667	216
20.02500	217
20.03333	217
20.04167	217
20.05000	218
20.05833	218
20.06667	219
20.07500	220
20.08333	221
20.09167	221
20.10000	222
20.10833	223
20.11667	224
20.12500	225
20.13333	226
20.14167	227
20.15000	228
20.15833	229
20.16667	230
20.17500	230
20.18333	231
20.19167	232
20.20000	234
20.20833	235
20.21667	236
20.22500	237
20.23333	238
20.24167	239
20.25000	240
20.25833	241
20.26667	242
20.27500	243
20.28333	245
20.29167	246
20.30000	247
20.30833	249
20.31667	251
20.32500	253
20.33333	255
20.34167	257
20.35000	258
20.35833	260
20.36667	262
20.37500	265
20.38333	267
20.39167	270
20.40000	273
20.40833	275
20.41667	278
20.42500	281
20.43333	285
20.44167	288
20.45000	292
20.45833	297
20.46667	301
20.47500	306
20.48333	310
20.49167	315
20.50000	321
20.50833	326
20.51667	333
20.52500	340
20.53333	347
20.54167	355
20.55000	363
20.55833	372
20.56667	381
20.57500	391
20.58333	402
20.59167	413
20.60000	426
20.60833	439
20.61667	454
20.62500	469
20.63333	486
20.64167	503
20.65000	522
20.65833	541
20.66667	563
20.67500	585
20.68333	608
20.69167	633
20.70000	659
20.70833	687
20.71667	715
20.72500	745
20.73333	776
20.74167	808
20.75000	842
20.75833	876
20.76667	911
20.77500	947
20.78333	983
20.79167	1020
20.80000	1058
20.80833	1096
20.81667	1134
20.82500	1173
20.83333	1211
20.84167	1249
20.85000	1287
20.85833	1324
20.86667	1361
20.87500	1397
20.88333	1432
20.89167	1466
20.90000	1499
20.90833	1532
20.91667	1564
20.92500	1595
20.93333	1625
20.94167	1655
20.95000	1683
20.95833	1711
20.96667	1739
20.97500	1766
20.98333	1793
20.99167	1821
21.00000	1848
21.00833	1876
21.01667	1904
21.02500	1933
21.03333	1963
21.04167	1995
21.05000	2029
21.05833	2065
21.06667	2103
21.07500	2144
21.08333	2188
21.09167	2236
21.10000	2288
21.10833	2345
21.11667	2407
21.12500	2474
21.13333	2547
21.14167	2627
21.15000	2715
21.15833	2811
21.16667	2915
21.17500	3029
21.18333	3153
21.19167	3287
21.20000	3433
21.20833	3591
21.21667	3760
21.22500	3943
21.23333	4139
21.24167	4348
21.25000	4572
21.25833	4810
21.26667	5062
21.27500	5329
21.28333	5610
21.29167	5905
21.30000	6213
21.30833	6533
21.31667	6865
21.32500	7208
21.33333	7560
21.34167	7921
21.35000	8289
21.35833	8661
21.36667	9036
21.37500	9412
21.38333	9787
21.39167	10159
21.40000	10525
21.40833	10883
21.41667	11231
21.42500	11566
21.43333	11887
21.44167	12190
21.45000	12473
21.45833	12736
21.46667	12974
21.47500	13188
21.48333	13375
21.49167	13534
21.50000	13664
21.50833	13765
21.51667	13835
21.52500	13875
21.53333	13884
21.54167	13862
21.55000	13810
21.55833	13728
21.56667	13617
21.57500	13478
21.58333	13313
21.59167	13123
21.60000	12909
21.60833	12673
21.61667	12417
21.62500	12142
21.63333	11851
21.64167	11546
21.65000	11228
21.65833	10900
21.66667	10564
21.67500	10221
21.68333	9873
21.69167	9522
21.70000	9170
21.70833	8817
21.71667	8467
21.72500	8120
21.73333	7778
21.74167	7441
21.75000	7110
21.75833	6787
21.76667	6472
21.77500	6167
21.78333	5871
21.79167	5585
21.80000	5309
21.80833	5044
21.81667	4789
21.82500	4545
21.83333	4312
21.84167	4090
21.85000	3878
21.85833	3676
21.86667	3484
21.87500	3302
21.88333	3130
21.89167	2967
21.90000	2813
21.90833	2668
21.91667	2530
21.92500	2401
21.93333	2278
21.94167	2163
21.95000	2054
21.95833	1951
21.96667	1855
21.97500	1764
21.98333	1680
21.99167	1600
22.00000	1525
22.00833	1455
22.01667	1389
22.02500	1327
22.03333	1269
22.04167	1215
22.05000	1164
22.05833	1116
22.06667	1071
22.07500	1030
22.08333	990
22.09167	954
22.10000	920
22.10833	888
22.11667	859
22.12500	831
22.13333	806
22.14167	782
22.15000	761
22.15833	741
22.16667	722
22.17500	705
22.18333	690
22.19167	675
22.20000	662
22.20833	650
22.21667	640
22.22500	630
22.23333	621
22.24167	613
22.25000	606
22.25833	599
22.26667	593
22.27500	588
22.28333	584
22.29167	580
22.30000	577
22.30833	574
22.31667	571
22.32500	569
22.33333	567
22.34167	565
22.35000	564
22.35833	563
22.36667	562
22.37500	561
22.38333	560
22.39167	559
22.40000	558
22.40833	556
22.41667	555
22.42500	553
22.43333	552
22.44167	550
22.45000	548
22.45833	545
22.46667	543
22.47500	540
22.48333	537
22.49167	533
22.50000	529
22.50833	525
22.51667	520
22.52500	516
22.53333	511
22.54167	506
22.55000	501
22.55833	495
22.56667	489
22.57500	483
22.58333	477
22.59167	471
22.60000	465
22.60833	458
22.61667	452
22.62500	445
22.63333	438
22.64167	431
22.65000	424
22.65833	417
22.66667	410
22.67500	404
22.68333	398
22.69167	392
22.70000	385
22.70833	379
22.71667	374
22.72500	369
22.73333	363
22.74167	359
22.75000	354
22.75833	349
22.76667	345
22.77500	341
22.78333	338
22.79167	335
22.80000	332
22.80833	330
22.81667	328
22.82500	327
22.83333	326
22.84167	325
22.85000	324
22.85833	323
22.86667	324
22.87500	324
22.88333	324
22.89167	324
22.90000	325
22.90833	326
22.91667	328
22.92500	329
22.93333	331
22.94167	334
22.95000	336
22.95833	339
22.96667	341
22.97500	344
22.98333	347
22.99167	350
23.00000	353
23.00833	355
23.01667	358
23.02500	361
23.03333	363
23.04167	366
23.05000	368
23.05833	371
23.06667	373
23.07500	376
23.08333	378
23.09167	380
23.10000	383
23.10833	385
23.11667	387
23.12500	389
23.13333	391
23.14167	392
23.15000	394
23.15833	395
23.16667	396
23.17500	397
23.18333	397
23.19167	398
23.20000	399
23.20833	399
23.21667	400
23.22500	401
23.23333	401
23.24167	401
23.25000	401
23.25833	401
23.26667	402
23.27500	402
23.28333	401
23.29167	401
23.30000	401
23.30833	401
23.31667	400
23.32500	400
23.33333	399
23.34167	399
23.35000	399
23.35833	398
23.36667	398
23.37500	398
23.38333	397
23.39167	396
23.40000	395
23.40833	394
23.41667	393
23.42500	392
23.43333	392
23.44167	392
23.45000	391
23.45833	391
23.46667	390
23.47500	389
23.48333	388
23.49167	388
23.50000	387
23.50833	387
23.51667	387
23.52500	386
23.53333	386
23.54167	386
23.55000	385
23.55833	385
23.56667	384
23.57500	384
23.58333	383
23.59167	383
23.60000	382
23.60833	382
23.61667	382
23.62500	382
23.63333	382
23.64167	381
23.65000	381
23.65833	381
23.66667	381
23.67500	381
23.68333	381
23.69167	381
23.70000	380
23.70833	380
23.71667	380
23.72500	380
23.73333	381
23.74167	381
23.75000	381
23.75833	381
23.76667	381
23.77500	381
23.78333	381
23.79167	381
23.80000	381
23.80833	381
23.81667	381
23.82500	381
23.83333	382
23.84167	382
23.85000	383
23.85833	383
23.86667	383
23.87500	383
23.88333	384
23.89167	384
23.90000	384
23.90833	384
23.91667	385
23.92500	385
23.93333	385
23.94167	386
23.95000	386
23.95833	386
23.96667	386
23.97500	386
23.98333	387
23.99167	387
24.00000	387
24.00833	387
24.01667	387
24.02500	387
24.03333	387
24.04167	387
24.05000	387
24.05833	387
24.06667	386
24.07500	385
24.08333	385
24.09167	384
24.10000	384
24.10833	384
24.11667	383
24.12500	383
24.13333	382
24.14167	380
24.15000	379
24.15833	378
24.16667	377
24.17500	376
24.18333	375
24.19167	374
24.20000	372
24.20833	370
24.21667	369
24.22500	367
24.23333	366
24.24167	364
24.25000	363
24.25833	361
24.26667	360
24.27500	358
24.28333	357
24.29167	355
24.30000	352
24.30833	350
24.31667	348
24.32500	346
24.33333	344
24.34167	342
24.35000	339
24.35833	337
24.36667	335
24.37500	332
24.38333	330
24.39167	328
24.40000	326
24.40833	324
24.41667	323
24.42500	321
24.43333	320
24.44167	319
24.45000	317
24.45833	315
24.46667	314
24.47500	312
24.48333	311
24.49167	310
24.50000	308
24.50833	307
24.51667	306
24.52500	305
24.53333	304
24.54167	303
24.55000	303
24.55833	303
24.56667	302
24.57500	301
24.58333	301
24.59167	300
24.60000	299
24.60833	299
24.61667	299
24.62500	299
24.63333	299
24.64167	299
24.65000	299
24.65833	299
24.66667	299
24.67500	299
24.68333	299
24.69167	299
24.70000	299
24.70833	300
24.71667	300
24.72500	300
24.73333	300
24.74167	301
24.75000	301
24.75833	301
24.76667	301
24.77500	302
24.78333	302
24.79167	302
24.80000	303
24.80833	304
24.81667	304
24.82500	304
24.83333	304
24.84167	304
24.85000	304
24.85833	304
24.86667	305
24.87500	305
24.88333	305
24.89167	306
24.90000	306
24.90833	306
24.91667	306
24.92500	306
24.93333	306
24.94167	306
24.95000	306
24.95833	306
24.96667	306
24.97500	306
24.98333	305
24.99167	305
25.00000	305
25.00833	305
25.01667	305
25.02500	304
25.03333	304
25.04167	304
25.05000	304
25.05833	304
25.06667	303
25.07500	304
25.08333	304
25.09167	304
25.10000	304
25.10833	304
25.11667	303
25.12500	303
25.13333	302
25.14167	302
25.15000	301
25.15833	300
25.16667	300
25.17500	300
25.18333	300
25.19167	300
25.20000	300
25.20833	300
25.21667	299
25.22500	299
25.23333	298
25.24167	298
25.25000	298
25.25833	298
25.26667	297
25.27500	297
25.28333	297
25.29167	297
25.30000	297
25.30833	297
25.31667	297
25.32500	296
25.33333	296
25.34167	295
25.35000	295
25.35833	295
25.36667	295
25.37500	295
25.38333	295
25.39167	295
25.40000	295
25.40833	295
25.41667	295
25.42500	295
25.43333	295
25.44167	295
25.45000	295
25.45833	295
25.46667	295
25.47500	295
25.48333	296
25.49167	296
25.50000	296
25.50833	296
25.51667	296
25.52500	297
25.53333	297
25.54167	298
25.55000	299
25.55833	299
25.56667	300
25.57500	300
25.58333	300
25.59167	301
25.60000	302
25.60833	302
25.61667	303
25.62500	304
25.63333	304
25.64167	305
25.65000	306
25.65833	306
25.66667	307
25.67500	307
25.68333	308
25.69167	309
25.70000	309
25.70833	310
25.71667	311
25.72500	312
25.73333	313
25.74167	314
25.75000	315
25.75833	316
25.76667	316
25.77500	317
25.78333	318
25.79167	318
25.80000	319
25.80833	319
25.81667	320
25.82500	321
25.83333	323
25.84167	324
25.85000	325
25.85833	326
25.86667	328
25.87500	329
25.88333	331
25.89167	333
25.90000	335
25.90833	337
25.91667	338
25.92500	341
25.93333	343
25.94167	346
25.95000	349
25.95833	352
25.96667	355
25.97500	359
25.98333	363
25.99167	366
26.00000	370
26.00833	375
26.01667	380
26.02500	385
26.03333	390
26.04167	397
26.05000	403
26.05833	410
26.06667	418
26.07500	426
26.08333	434
26.09167	444
26.10000	453
26.10833	464
26.11667	475
26.12500	487
26.13333	499
26.14167	512
26.15000	526
26.15833	540
26.16667	556
26.17500	572
26.18333	589
26.19167	608
26.20000	627
26.20833	648
26.21667	669
26.22500	692
26.23333	715
26.24167	740
26.25000	766
26.25833	793
26.26667	821
26.27500	850
26.28333	880
26.29167	911
26.30000	942
26.30833	975
26.31667	1008
26.32500	1042
26.33333	1076
26.34167	1111
26.35000	1147
26.35833	1182
26.36667	1218
26.37500	1254
26.38333	1290
26.39167	1325
26.40000	1360
26.40833	1395
26.41667	1428
26.42500	1461
26.43333	1492
26.44167	1522
26.45000	1550
26.45833	1578
26.46667	1603
26.47500	1627
26.48333	1648
26.49167	1667
26.50000	1683
26.50833	1698
26.51667	1710
26.52500	1720
26.53333	1727
26.54167	1732
26.55000	1733
26.55833	1732
26.56667	1729
26.57500	1723
26.58333	1714
26.59167	1703
26.60000	1689
26.60833	1673
26.61667	1655
26.62500	1634
26.63333	1611
26.64167	1587
26.65000	1561
26.65833	1533
26.66667	1504
26.67500	1474
26.68333	1442
26.69167	1410
26.70000	1377
26.70833	1343
26.71667	1309
26.72500	1275
26.73333	1239
26.74167	1204
26.75000	1170
26.75833	1135
26.76667	1101
26.77500	1067
26.78333	1033
26.79167	999
26.80000	967
26.80833	935
26.81667	904
26.82500	874
26.83333	844
26.84167	816
26.85000	789
26.85833	762
26.86667	736
26.87500	712
26.88333	688
26.89167	666
26.90000	644
26.90833	624
26.91667	604
26.92500	585
26.93333	567
26.94167	550
26.95000	533
26.95833	517
26.96667	501
26.97500	486
26.98333	472
26.99167	459
27.00000	446
27.00833	434
27.01667	423
27.02500	412
27.03333	401
27.04167	391
27.05000	381
27.05833	372
27.06667	363
27.07500	355
27.08333	347
27.09167	339
27.10000	331
27.10833	324
27.11667	317
27.12500	310
27.13333	303
27.14167	297
27.15000	291
27.15833	285
27.16667	279
27.17500	274
27.18333	268
27.19167	263
27.20000	258
27.20833	253
27.21667	248
27.22500	244
27.23333	239
27.24167	235
27.25000	230
27.25833	226
27.26667	222
27.27500	218
27.28333	214
27.29167	210
27.30000	206
27.30833	203
27.31667	199
27.32500	196
27.33333	192
27.34167	189
27.35000	186
27.35833	183
27.36667	180
27.37500	178
27.38333	175
27.39167	172
27.40000	169
27.40833	167
27.41667	164
27.42500	162
27.43333	159
27.44167	157
27.45000	155
27.45833	153
27.46667	151
27.47500	149
27.48333	147
27.49167	145
27.50000	143
27.50833	142
27.51667	140
27.52500	138
27.53333	137
27.54167	135
27.55000	134
27.55833	132
27.56667	130
27.57500	128
27.58333	127
27.59167	125
27.60000	124
27.60833	123
27.61667	122
27.62500	121
27.63333	119
27.64167	118
27.65000	117
27.65833	117
27.66667	116
27.67500	115
27.68333	114
27.69167	113
27.70000	112
27.70833	111
27.71667	110
27.72500	109
27.73333	109
27.74167	108
27.75000	107
27.75833	107
27.76667	106
27.77500	105
27.78333	105
27.79167	104
27.80000	103
27.80833	102
27.81667	101
27.82500	100
27.83333	100
27.84167	99
27.85000	98
27.85833	98
27.86667	97
27.87500	96
27.88333	96
27.89167	95
27.90000	95
27.90833	94
27.91667	94
27.92500	93
27.93333	92
27.94167	92
27.95000	91
27.95833	90
27.96667	89
27.97500	89
27.98333	88
27.99167	87
28.00000	87

