R.Time (min)	Intensity
0.00000	-50
0.00833	-50
0.01667	-10
0.02500	-1
0.03333	-2
0.04167	-3
0.05000	-4
0.05833	-5
0.06667	-5
0.07500	-5
0.08333	-5
0.09167	-6
0.10000	-6
0.10833	-7
0.11667	-7
0.12500	-8
0.13333	-8
0.14167	-9
0.15000	-10
0.15833	-10
0.16667	-11
0.17500	-11
0.18333	-11
0.19167	-12
0.20000	-12
0.20833	-13
0.21667	-13
0.22500	-14
0.23333	-14
0.24167	-14
0.25000	-14
0.25833	-15
0.26667	-16
0.27500	-17
0.28333	-18
0.29167	-18
0.30000	-19
0.30833	-20
0.31667	-21
0.32500	-22
0.33333	-23
0.34167	-23
0.35000	-24
0.35833	-25
0.36667	-26
0.37500	-26
0.38333	-27
0.39167	-28
0.40000	-28
0.40833	-29
0.41667	-29
0.42500	-29
0.43333	-30
0.44167	-30
0.45000	-30
0.45833	-31
0.46667	-31
0.47500	-32
0.48333	-32
0.49167	-32
0.50000	-33
0.50833	-33
0.51667	-34
0.52500	-34
0.53333	-34
0.54167	-35
0.55000	-36
0.55833	-36
0.56667	-37
0.57500	-38
0.58333	-39
0.59167	-39
0.60000	-40
0.60833	-41
0.61667	-41
0.62500	-42
0.63333	-43
0.64167	-43
0.65000	-44
0.65833	-45
0.66667	-46
0.67500	-46
0.68333	-47
0.69167	-48
0.70000	-48
0.70833	-49
0.71667	-49
0.72500	-49
0.73333	-49
0.74167	-49
0.75000	-50
0.75833	-50
0.76667	-50
0.77500	-50
0.78333	-51
0.79167	-52
0.80000	-52
0.80833	-53
0.81667	-53
0.82500	-54
0.83333	-54
0.84167	-54
0.85000	-55
0.85833	-55
0.86667	-56
0.87500	-56
0.88333	-57
0.89167	-58
0.90000	-58
0.90833	-59
0.91667	-60
0.92500	-60
0.93333	-61
0.94167	-62
0.95000	-62
0.95833	-63
0.96667	-64
0.97500	-64
0.98333	-65
0.99167	-65
1.00000	-66
1.00833	-67
1.01667	-67
1.02500	-67
1.03333	-67
1.04167	-67
1.05000	-67
1.05833	-67
1.06667	-67
1.07500	-68
1.08333	-68
1.09167	-68
1.10000	-68
1.10833	-69
1.11667	-69
1.12500	-69
1.13333	-70
1.14167	-70
1.15000	-70
1.15833	-71
1.16667	-71
1.17500	-71
1.18333	-72
1.19167	-72
1.20000	-73
1.20833	-73
1.21667	-73
1.22500	-74
1.23333	-75
1.24167	-76
1.25000	-76
1.25833	-76
1.26667	-77
1.27500	-78
1.28333	-79
1.29167	-80
1.30000	-80
1.30833	-81
1.31667	-81
1.32500	-81
1.33333	-82
1.34167	-82
1.35000	-83
1.35833	-83
1.36667	-83
1.37500	-84
1.38333	-84
1.39167	-84
1.40000	-85
1.40833	-85
1.41667	-85
1.42500	-86
1.43333	-87
1.44167	-87
1.45000	-87
1.45833	-87
1.46667	-88
1.47500	-88
1.48333	-88
1.49167	-88
1.50000	-88
1.50833	-88
1.51667	-88
1.52500	-88
1.53333	-89
1.54167	-89
1.55000	-89
1.55833	-89
1.56667	-89
1.57500	-90
1.58333	-90
1.59167	-90
1.60000	-91
1.60833	-92
1.61667	-92
1.62500	-93
1.63333	-93
1.64167	-94
1.65000	-95
1.65833	-95
1.66667	-95
1.67500	-96
1.68333	-96
1.69167	-97
1.70000	-97
1.70833	-98
1.71667	-98
1.72500	-98
1.73333	-98
1.74167	-98
1.75000	-98
1.75833	-98
1.76667	-98
1.77500	-98
1.78333	-98
1.79167	-98
1.80000	-98
1.80833	-98
1.81667	-98
1.82500	-98
1.83333	-98
1.84167	-99
1.85000	-99
1.85833	-100
1.86667	-100
1.87500	-100
1.88333	-100
1.89167	-101
1.90000	-102
1.90833	-103
1.91667	-103
1.92500	-103
1.93333	-103
1.94167	-104
1.95000	-104
1.95833	-105
1.96667	-105
1.97500	-105
1.98333	-106
1.99167	-106
2.00000	-106
2.00833	-106
2.01667	-106
2.02500	-106
2.03333	-107
2.04167	-107
2.05000	-106
2.05833	-106
2.06667	-106
2.07500	-106
2.08333	-106
2.09167	-106
2.10000	-106
2.10833	-106
2.11667	-106
2.12500	-106
2.13333	-105
2.14167	-105
2.15000	-104
2.15833	-104
2.16667	-103
2.17500	-103
2.18333	-102
2.19167	-102
2.20000	-101
2.20833	-101
2.21667	-100
2.22500	-100
2.23333	-100
2.24167	-99
2.25000	-99
2.25833	-99
2.26667	-98
2.27500	-96
2.28333	-95
2.29167	-95
2.30000	-94
2.30833	-92
2.31667	-91
2.32500	-89
2.33333	-87
2.34167	-86
2.35000	-84
2.35833	-81
2.36667	-79
2.37500	-76
2.38333	-73
2.39167	-69
2.40000	-66
2.40833	-62
2.41667	-58
2.42500	-54
2.43333	-49
2.44167	-44
2.45000	-40
2.45833	-34
2.46667	-29
2.47500	-23
2.48333	-17
2.49167	-10
2.50000	-3
2.50833	4
2.51667	11
2.52500	19
2.53333	27
2.54167	36
2.55000	45
2.55833	54
2.56667	64
2.57500	75
2.58333	87
2.59167	99
2.60000	112
2.60833	125
2.61667	140
2.62500	155
2.63333	170
2.64167	187
2.65000	205
2.65833	224
2.66667	244
2.67500	265
2.68333	287
2.69167	310
2.70000	335
2.70833	361
2.71667	388
2.72500	416
2.73333	446
2.74167	478
2.75000	511
2.75833	546
2.76667	582
2.77500	621
2.78333	661
2.79167	703
2.80000	748
2.80833	795
2.81667	844
2.82500	896
2.83333	951
2.84167	1008
2.85000	1069
2.85833	1132
2.86667	1199
2.87500	1269
2.88333	1343
2.89167	1420
2.90000	1502
2.90833	1588
2.91667	1677
2.92500	1771
2.93333	1870
2.94167	1973
2.95000	2080
2.95833	2193
2.96667	2311
2.97500	2433
2.98333	2561
2.99167	2694
3.00000	2832
3.00833	2975
3.01667	3123
3.02500	3277
3.03333	3436
3.04167	3600
3.05000	3769
3.05833	3943
3.06667	4121
3.07500	4304
3.08333	4490
3.09167	4680
3.10000	4873
3.10833	5069
3.11667	5268
3.12500	5469
3.13333	5672
3.14167	5875
3.15000	6080
3.15833	6284
3.16667	6488
3.17500	6691
3.18333	6892
3.19167	7090
3.20000	7285
3.20833	7475
3.21667	7661
3.22500	7842
3.23333	8017
3.24167	8184
3.25000	8344
3.25833	8497
3.26667	8640
3.27500	8775
3.28333	8899
3.29167	9014
3.30000	9117
3.30833	9209
3.31667	9290
3.32500	9358
3.33333	9414
3.34167	9458
3.35000	9489
3.35833	9507
3.36667	9513
3.37500	9505
3.38333	9485
3.39167	9452
3.40000	9406
3.40833	9349
3.41667	9280
3.42500	9199
3.43333	9106
3.44167	9003
3.45000	8889
3.45833	8765
3.46667	8632
3.47500	8489
3.48333	8339
3.49167	8181
3.50000	8015
3.50833	7843
3.51667	7665
3.52500	7482
3.53333	7295
3.54167	7103
3.55000	6908
3.55833	6711
3.56667	6512
3.57500	6311
3.58333	6110
3.59167	5908
3.60000	5706
3.60833	5506
3.61667	5306
3.62500	5108
3.63333	4912
3.64167	4719
3.65000	4529
3.65833	4342
3.66667	4159
3.67500	3979
3.68333	3803
3.69167	3632
3.70000	3466
3.70833	3304
3.71667	3147
3.72500	2994
3.73333	2847
3.74167	2705
3.75000	2568
3.75833	2436
3.76667	2309
3.77500	2187
3.78333	2070
3.79167	1958
3.80000	1851
3.80833	1748
3.81667	1650
3.82500	1557
3.83333	1468
3.84167	1384
3.85000	1303
3.85833	1227
3.86667	1155
3.87500	1087
3.88333	1022
3.89167	961
3.90000	903
3.90833	849
3.91667	797
3.92500	748
3.93333	702
3.94167	659
3.95000	618
3.95833	580
3.96667	544
3.97500	510
3.98333	478
3.99167	448
4.00000	420
4.00833	394
4.01667	369
4.02500	346
4.03333	324
4.04167	304
4.05000	285
4.05833	267
4.06667	250
4.07500	234
4.08333	219
4.09167	204
4.10000	191
4.10833	178
4.11667	166
4.12500	155
4.13333	144
4.14167	133
4.15000	123
4.15833	114
4.16667	105
4.17500	96
4.18333	88
4.19167	80
4.20000	72
4.20833	64
4.21667	57
4.22500	50
4.23333	42
4.24167	35
4.25000	28
4.25833	21
4.26667	15
4.27500	8
4.28333	2
4.29167	-3
4.30000	-9
4.30833	-14
4.31667	-20
4.32500	-25
4.33333	-30
4.34167	-35
4.35000	-39
4.35833	-44
4.36667	-48
4.37500	-53
4.38333	-57
4.39167	-61
4.40000	-65
4.40833	-68
4.41667	-72
4.42500	-75
4.43333	-78
4.44167	-81
4.45000	-84
4.45833	-87
4.46667	-90
4.47500	-92
4.48333	-94
4.49167	-97
4.50000	-99
4.50833	-101
4.51667	-103
4.52500	-105
4.53333	-106
4.54167	-108
4.55000	-110
4.55833	-112
4.56667	-114
4.57500	-115
4.58333	-117
4.59167	-118
4.60000	-120
4.60833	-121
4.61667	-123
4.62500	-124
4.63333	-125
4.64167	-126
4.65000	-127
4.65833	-128
4.66667	-129
4.67500	-129
4.68333	-130
4.69167	-131
4.70000	-131
4.70833	-132
4.71667	-132
4.72500	-133
4.73333	-133
4.74167	-133
4.75000	-133
4.75833	-132
4.76667	-132
4.77500	-132
4.78333	-132
4.79167	-132
4.80000	-132
4.80833	-132
4.81667	-132
4.82500	-132
4.83333	-132
4.84167	-132
4.85000	-132
4.85833	-132
4.86667	-132
4.87500	-132
4.88333	-132
4.89167	-132
4.90000	-132
4.90833	-132
4.91667	-133
4.92500	-133
4.93333	-133
4.94167	-133
4.95000	-133
4.95833	-133
4.96667	-132
4.97500	-132
4.98333	-132
4.99167	-132
5.00000	-132
5.00833	-132
5.01667	-132
5.02500	-132
5.03333	-132
5.04167	-132
5.05000	-132
5.05833	-132
5.06667	-131
5.07500	-131
5.08333	-130
5.09167	-130
5.10000	-129
5.10833	-129
5.11667	-129
5.12500	-129
5.13333	-129
5.14167	-128
5.15000	-128
5.15833	-128
5.16667	-127
5.17500	-126
5.18333	-126
5.19167	-126
5.20000	-126
5.20833	-126
5.21667	-126
5.22500	-126
5.23333	-127
5.24167	-127
5.25000	-127
5.25833	-127
5.26667	-127
5.27500	-127
5.28333	-127
5.29167	-127
5.30000	-128
5.30833	-128
5.31667	-128
5.32500	-129
5.33333	-130
5.34167	-130
5.35000	-131
5.35833	-131
5.36667	-131
5.37500	-132
5.38333	-133
5.39167	-134
5.40000	-134
5.40833	-135
5.41667	-135
5.42500	-136
5.43333	-136
5.44167	-137
5.45000	-137
5.45833	-138
5.46667	-139
5.47500	-139
5.48333	-140
5.49167	-140
5.50000	-141
5.50833	-141
5.51667	-141
5.52500	-142
5.53333	-142
5.54167	-142
5.55000	-142
5.55833	-143
5.56667	-143
5.57500	-144
5.58333	-145
5.59167	-146
5.60000	-146
5.60833	-146
5.61667	-146
5.62500	-147
5.63333	-146
5.64167	-146
5.65000	-146
5.65833	-146
5.66667	-146
5.67500	-146
5.68333	-146
5.69167	-146
5.70000	-146
5.70833	-146
5.71667	-146
5.72500	-147
5.73333	-147
5.74167	-147
5.75000	-148
5.75833	-148
5.76667	-148
5.77500	-148
5.78333	-148
5.79167	-149
5.80000	-149
5.80833	-149
5.81667	-149
5.82500	-149
5.83333	-149
5.84167	-149
5.85000	-150
5.85833	-150
5.86667	-150
5.87500	-150
5.88333	-150
5.89167	-151
5.90000	-151
5.90833	-151
5.91667	-151
5.92500	-151
5.93333	-151
5.94167	-151
5.95000	-152
5.95833	-152
5.96667	-152
5.97500	-152
5.98333	-152
5.99167	-152
6.00000	-153
6.00833	-153
6.01667	-153
6.02500	-154
6.03333	-154
6.04167	-154
6.05000	-154
6.05833	-154
6.06667	-155
6.07500	-155
6.08333	-156
6.09167	-156
6.10000	-156
6.10833	-156
6.11667	-155
6.12500	-155
6.13333	-155
6.14167	-155
6.15000	-155
6.15833	-155
6.16667	-155
6.17500	-155
6.18333	-155
6.19167	-155
6.20000	-155
6.20833	-155
6.21667	-155
6.22500	-155
6.23333	-156
6.24167	-156
6.25000	-155
6.25833	-155
6.26667	-154
6.27500	-154
6.28333	-153
6.29167	-153
6.30000	-153
6.30833	-153
6.31667	-153
6.32500	-153
6.33333	-153
6.34167	-152
6.35000	-152
6.35833	-152
6.36667	-152
6.37500	-152
6.38333	-153
6.39167	-153
6.40000	-152
6.40833	-152
6.41667	-153
6.42500	-153
6.43333	-153
6.44167	-153
6.45000	-153
6.45833	-153
6.46667	-153
6.47500	-153
6.48333	-154
6.49167	-154
6.50000	-154
6.50833	-155
6.51667	-155
6.52500	-155
6.53333	-155
6.54167	-156
6.55000	-156
6.55833	-156
6.56667	-156
6.57500	-157
6.58333	-157
6.59167	-157
6.60000	-157
6.60833	-157
6.61667	-158
6.62500	-158
6.63333	-158
6.64167	-158
6.65000	-158
6.65833	-158
6.66667	-158
6.67500	-158
6.68333	-157
6.69167	-157
6.70000	-157
6.70833	-156
6.71667	-156
6.72500	-156
6.73333	-156
6.74167	-156
6.75000	-156
6.75833	-156
6.76667	-156
6.77500	-156
6.78333	-157
6.79167	-158
6.80000	-158
6.80833	-158
6.81667	-158
6.82500	-158
6.83333	-158
6.84167	-158
6.85000	-158
6.85833	-158
6.86667	-158
6.87500	-159
6.88333	-159
6.89167	-159
6.90000	-159
6.90833	-159
6.91667	-159
6.92500	-159
6.93333	-159
6.94167	-159
6.95000	-158
6.95833	-158
6.96667	-158
6.97500	-158
6.98333	-157
6.99167	-157
7.00000	-156
7.00833	-155
7.01667	-154
7.02500	-154
7.03333	-153
7.04167	-151
7.05000	-149
7.05833	-147
7.06667	-144
7.07500	-140
7.08333	-137
7.09167	-132
7.10000	-128
7.10833	-122
7.11667	-116
7.12500	-108
7.13333	-99
7.14167	-88
7.15000	-76
7.15833	-63
7.16667	-48
7.17500	-32
7.18333	-13
7.19167	8
7.20000	31
7.20833	55
7.21667	82
7.22500	110
7.23333	140
7.24167	171
7.25000	203
7.25833	236
7.26667	267
7.27500	296
7.28333	321
7.29167	341
7.30000	352
7.30833	356
7.31667	350
7.32500	336
7.33333	316
7.34167	297
7.35000	286
7.35833	295
7.36667	340
7.37500	436
7.38333	605
7.39167	864
7.40000	1235
7.40833	1735
7.41667	2381
7.42500	3184
7.43333	4150
7.44167	5279
7.45000	6563
7.45833	7986
7.46667	9522
7.47500	11133
7.48333	12773
7.49167	14386
7.50000	15906
7.50833	17268
7.51667	18407
7.52500	19265
7.53333	19801
7.54167	19990
7.55000	19829
7.55833	19338
7.56667	18555
7.57500	17531
7.58333	16328
7.59167	15012
7.60000	13642
7.60833	12273
7.61667	10950
7.62500	9707
7.63333	8566
7.64167	7540
7.65000	6632
7.65833	5841
7.66667	5159
7.67500	4577
7.68333	4082
7.69167	3662
7.70000	3306
7.70833	3004
7.71667	2746
7.72500	2524
7.73333	2331
7.74167	2161
7.75000	2011
7.75833	1877
7.76667	1755
7.77500	1645
7.78333	1543
7.79167	1450
7.80000	1363
7.80833	1283
7.81667	1208
7.82500	1137
7.83333	1071
7.84167	1008
7.85000	949
7.85833	892
7.86667	838
7.87500	786
7.88333	737
7.89167	691
7.90000	647
7.90833	606
7.91667	568
7.92500	533
7.93333	500
7.94167	471
7.95000	444
7.95833	420
7.96667	399
7.97500	381
7.98333	365
7.99167	351
8.00000	340
8.00833	331
8.01667	323
8.02500	316
8.03333	310
8.04167	304
8.05000	297
8.05833	291
8.06667	285
8.07500	278
8.08333	270
8.09167	262
8.10000	254
8.10833	245
8.11667	236
8.12500	227
8.13333	218
8.14167	209
8.15000	201
8.15833	192
8.16667	184
8.17500	176
8.18333	168
8.19167	162
8.20000	155
8.20833	149
8.21667	144
8.22500	139
8.23333	134
8.24167	130
8.25000	126
8.25833	122
8.26667	119
8.27500	117
8.28333	115
8.29167	113
8.30000	111
8.30833	110
8.31667	108
8.32500	107
8.33333	106
8.34167	105
8.35000	105
8.35833	104
8.36667	103
8.37500	102
8.38333	101
8.39167	99
8.40000	98
8.40833	98
8.41667	97
8.42500	96
8.43333	95
8.44167	94
8.45000	93
8.45833	92
8.46667	91
8.47500	89
8.48333	88
8.49167	87
8.50000	86
8.50833	85
8.51667	83
8.52500	81
8.53333	79
8.54167	77
8.55000	75
8.55833	74
8.56667	73
8.57500	72
8.58333	71
8.59167	70
8.60000	69
8.60833	68
8.61667	68
8.62500	68
8.63333	69
8.64167	70
8.65000	71
8.65833	73
8.66667	75
8.67500	78
8.68333	82
8.69167	85
8.70000	90
8.70833	94
8.71667	99
8.72500	104
8.73333	109
8.74167	114
8.75000	119
8.75833	125
8.76667	130
8.77500	135
8.78333	141
8.79167	146
8.80000	151
8.80833	157
8.81667	163
8.82500	170
8.83333	178
8.84167	187
8.85000	197
8.85833	210
8.86667	225
8.87500	243
8.88333	265
8.89167	292
8.90000	324
8.90833	364
8.91667	410
8.92500	465
8.93333	528
8.94167	600
8.95000	682
8.95833	773
8.96667	874
8.97500	983
8.98333	1099
8.99167	1221
9.00000	1346
9.00833	1474
9.01667	1601
9.02500	1725
9.03333	1843
9.04167	1953
9.05000	2053
9.05833	2140
9.06667	2212
9.07500	2267
9.08333	2305
9.09167	2326
9.10000	2328
9.10833	2313
9.11667	2282
9.12500	2236
9.13333	2176
9.14167	2104
9.15000	2022
9.15833	1932
9.16667	1836
9.17500	1736
9.18333	1634
9.19167	1531
9.20000	1429
9.20833	1329
9.21667	1232
9.22500	1139
9.23333	1052
9.24167	969
9.25000	892
9.25833	820
9.26667	755
9.27500	695
9.28333	642
9.29167	594
9.30000	550
9.30833	512
9.31667	479
9.32500	449
9.33333	424
9.34167	403
9.35000	386
9.35833	372
9.36667	363
9.37500	357
9.38333	355
9.39167	358
9.40000	366
9.40833	380
9.41667	400
9.42500	427
9.43333	463
9.44167	510
9.45000	570
9.45833	646
9.46667	739
9.47500	855
9.48333	997
9.49167	1170
9.50000	1379
9.50833	1629
9.51667	1926
9.52500	2275
9.53333	2680
9.54167	3146
9.55000	3677
9.55833	4275
9.56667	4941
9.57500	5674
9.58333	6472
9.59167	7329
9.60000	8239
9.60833	9191
9.61667	10176
9.62500	11180
9.63333	12188
9.64167	13185
9.65000	14156
9.65833	15084
9.66667	15955
9.67500	16754
9.68333	17469
9.69167	18089
9.70000	18607
9.70833	19017
9.71667	19319
9.72500	19512
9.73333	19600
9.74167	19590
9.75000	19489
9.75833	19309
9.76667	19060
9.77500	18756
9.78333	18409
9.79167	18035
9.80000	17645
9.80833	17252
9.81667	16868
9.82500	16503
9.83333	16166
9.84167	15866
9.85000	15607
9.85833	15396
9.86667	15236
9.87500	15128
9.88333	15076
9.89167	15078
9.90000	15134
9.90833	15243
9.91667	15404
9.92500	15612
9.93333	15867
9.94167	16164
9.95000	16500
9.95833	16874
9.96667	17280
9.97500	17716
9.98333	18178
9.99167	18664
10.00000	19169
10.00833	19690
10.01667	20224
10.02500	20765
10.03333	21309
10.04167	21846
10.05000	22366
10.05833	22852
10.06667	23280
10.07500	23620
10.08333	23835
10.09167	23886
10.10000	23736
10.10833	23352
10.11667	22718
10.12500	21833
10.13333	20715
10.14167	19399
10.15000	17934
10.15833	16375
10.16667	14779
10.17500	13200
10.18333	11681
10.19167	10257
10.20000	8950
10.20833	7774
10.21667	6733
10.22500	5822
10.23333	5035
10.24167	4361
10.25000	3788
10.25833	3304
10.26667	2895
10.27500	2550
10.28333	2260
10.29167	2015
10.30000	1808
10.30833	1633
10.31667	1482
10.32500	1353
10.33333	1241
10.34167	1143
10.35000	1057
10.35833	980
10.36667	911
10.37500	849
10.38333	792
10.39167	740
10.40000	692
10.40833	648
10.41667	608
10.42500	571
10.43333	536
10.44167	505
10.45000	477
10.45833	451
10.46667	429
10.47500	409
10.48333	392
10.49167	378
10.50000	367
10.50833	359
10.51667	353
10.52500	351
10.53333	352
10.54167	356
10.55000	363
10.55833	374
10.56667	388
10.57500	405
10.58333	426
10.59167	451
10.60000	480
10.60833	514
10.61667	553
10.62500	599
10.63333	652
10.64167	714
10.65000	788
10.65833	874
10.66667	975
10.67500	1097
10.68333	1241
10.69167	1413
10.70000	1619
10.70833	1865
10.71667	2158
10.72500	2505
10.73333	2916
10.74167	3399
10.75000	3963
10.75833	4616
10.76667	5365
10.77500	6216
10.78333	7173
10.79167	8237
10.80000	9409
10.80833	10682
10.81667	12049
10.82500	13497
10.83333	15011
10.84167	16570
10.85000	18150
10.85833	19726
10.86667	21270
10.87500	22752
10.88333	24143
10.89167	25416
10.90000	26544
10.90833	27505
10.91667	28278
10.92500	28850
10.93333	29212
10.94167	29359
10.95000	29293
10.95833	29021
10.96667	28553
10.97500	27906
10.98333	27097
10.99167	26148
11.00000	25082
11.00833	23922
11.01667	22692
11.02500	21415
11.03333	20112
11.04167	18803
11.05000	17506
11.05833	16236
11.06667	15005
11.07500	13825
11.08333	12703
11.09167	11644
11.10000	10651
11.10833	9728
11.11667	8874
11.12500	8089
11.13333	7370
11.14167	6714
11.15000	6118
11.15833	5578
11.16667	5090
11.17500	4650
11.18333	4254
11.19167	3897
11.20000	3576
11.20833	3287
11.21667	3027
11.22500	2791
11.23333	2578
11.24167	2385
11.25000	2210
11.25833	2051
11.26667	1905
11.27500	1772
11.28333	1649
11.29167	1536
11.30000	1431
11.30833	1334
11.31667	1243
11.32500	1159
11.33333	1081
11.34167	1007
11.35000	939
11.35833	875
11.36667	815
11.37500	758
11.38333	706
11.39167	657
11.40000	611
11.40833	568
11.41667	528
11.42500	491
11.43333	456
11.44167	424
11.45000	394
11.45833	367
11.46667	342
11.47500	320
11.48333	299
11.49167	280
11.50000	263
11.50833	248
11.51667	235
11.52500	222
11.53333	211
11.54167	201
11.55000	192
11.55833	183
11.56667	176
11.57500	168
11.58333	162
11.59167	156
11.60000	149
11.60833	144
11.61667	138
11.62500	133
11.63333	128
11.64167	122
11.65000	117
11.65833	113
11.66667	109
11.67500	105
11.68333	101
11.69167	98
11.70000	96
11.70833	94
11.71667	92
11.72500	91
11.73333	90
11.74167	90
11.75000	89
11.75833	89
11.76667	88
11.77500	88
11.78333	87
11.79167	85
11.80000	84
11.80833	82
11.81667	81
11.82500	79
11.83333	76
11.84167	73
11.85000	70
11.85833	66
11.86667	62
11.87500	57
11.88333	53
11.89167	48
11.90000	44
11.90833	39
11.91667	34
11.92500	30
11.93333	25
11.94167	21
11.95000	17
11.95833	12
11.96667	9
11.97500	5
11.98333	2
11.99167	-1
12.00000	-3
12.00833	-5
12.01667	-7
12.02500	-8
12.03333	-9
12.04167	-10
12.05000	-10
12.05833	-11
12.06667	-11
12.07500	-11
12.08333	-11
12.09167	-10
12.10000	-10
12.10833	-10
12.11667	-11
12.12500	-11
12.13333	-11
12.14167	-11
12.15000	-12
12.15833	-13
12.16667	-14
12.17500	-15
12.18333	-17
12.19167	-18
12.20000	-20
12.20833	-22
12.21667	-24
12.22500	-26
12.23333	-28
12.24167	-30
12.25000	-32
12.25833	-34
12.26667	-36
12.27500	-39
12.28333	-41
12.29167	-44
12.30000	-46
12.30833	-48
12.31667	-50
12.32500	-51
12.33333	-53
12.34167	-54
12.35000	-56
12.35833	-57
12.36667	-59
12.37500	-61
12.38333	-62
12.39167	-64
12.40000	-66
12.40833	-67
12.41667	-68
12.42500	-69
12.43333	-70
12.44167	-71
12.45000	-72
12.45833	-73
12.46667	-74
12.47500	-75
12.48333	-75
12.49167	-75
12.50000	-76
12.50833	-76
12.51667	-76
12.52500	-76
12.53333	-76
12.54167	-76
12.55000	-75
12.55833	-75
12.56667	-75
12.57500	-74
12.58333	-74
12.59167	-73
12.60000	-72
12.60833	-70
12.61667	-69
12.62500	-68
12.63333	-67
12.64167	-66
12.65000	-64
12.65833	-63
12.66667	-62
12.67500	-61
12.68333	-60
12.69167	-59
12.70000	-58
12.70833	-57
12.71667	-56
12.72500	-55
12.73333	-54
12.74167	-54
12.75000	-53
12.75833	-52
12.76667	-52
12.77500	-52
12.78333	-51
12.79167	-51
12.80000	-51
12.80833	-51
12.81667	-50
12.82500	-50
12.83333	-50
12.84167	-49
12.85000	-49
12.85833	-48
12.86667	-48
12.87500	-48
12.88333	-47
12.89167	-47
12.90000	-47
12.90833	-46
12.91667	-45
12.92500	-45
12.93333	-44
12.94167	-43
12.95000	-42
12.95833	-41
12.96667	-39
12.97500	-38
12.98333	-36
12.99167	-35
13.00000	-34
13.00833	-32
13.01667	-31
13.02500	-30
13.03333	-29
13.04167	-28
13.05000	-27
13.05833	-26
13.06667	-25
13.07500	-24
13.08333	-24
13.09167	-23
13.10000	-23
13.10833	-23
13.11667	-23
13.12500	-23
13.13333	-22
13.14167	-23
13.15000	-23
13.15833	-24
13.16667	-24
13.17500	-25
13.18333	-26
13.19167	-26
13.20000	-27
13.20833	-27
13.21667	-28
13.22500	-28
13.23333	-28
13.24167	-29
13.25000	-29
13.25833	-29
13.26667	-29
13.27500	-30
13.28333	-30
13.29167	-30
13.30000	-30
13.30833	-29
13.31667	-29
13.32500	-29
13.33333	-28
13.34167	-28
13.35000	-27
13.35833	-26
13.36667	-25
13.37500	-23
13.38333	-22
13.39167	-21
13.40000	-19
13.40833	-18
13.41667	-17
13.42500	-15
13.43333	-14
13.44167	-13
13.45000	-11
13.45833	-9
13.46667	-7
13.47500	-4
13.48333	-2
13.49167	1
13.50000	4
13.50833	7
13.51667	10
13.52500	14
13.53333	19
13.54167	25
13.55000	31
13.55833	37
13.56667	45
13.57500	53
13.58333	62
13.59167	72
13.60000	83
13.60833	94
13.61667	107
13.62500	120
13.63333	134
13.64167	150
13.65000	166
13.65833	183
13.66667	200
13.67500	217
13.68333	234
13.69167	251
13.70000	267
13.70833	283
13.71667	297
13.72500	311
13.73333	324
13.74167	335
13.75000	345
13.75833	353
13.76667	360
13.77500	365
13.78333	369
13.79167	372
13.80000	374
13.80833	374
13.81667	375
13.82500	374
13.83333	374
13.84167	373
13.85000	373
13.85833	372
13.86667	371
13.87500	371
13.88333	372
13.89167	373
13.90000	374
13.90833	375
13.91667	376
13.92500	378
13.93333	379
13.94167	380
13.95000	381
13.95833	381
13.96667	380
13.97500	379
13.98333	378
13.99167	375
14.00000	371
14.00833	367
14.01667	361
14.02500	355
14.03333	348
14.04167	341
14.05000	332
14.05833	323
14.06667	314
14.07500	305
14.08333	295
14.09167	285
14.10000	275
14.10833	265
14.11667	255
14.12500	245
14.13333	236
14.14167	228
14.15000	220
14.15833	212
14.16667	206
14.17500	199
14.18333	194
14.19167	188
14.20000	183
14.20833	179
14.21667	175
14.22500	172
14.23333	170
14.24167	167
14.25000	165
14.25833	163
14.26667	162
14.27500	160
14.28333	159
14.29167	159
14.30000	158
14.30833	158
14.31667	158
14.32500	159
14.33333	160
14.34167	160
14.35000	161
14.35833	162
14.36667	163
14.37500	164
14.38333	165
14.39167	166
14.40000	167
14.40833	169
14.41667	170
14.42500	172
14.43333	173
14.44167	174
14.45000	176
14.45833	177
14.46667	178
14.47500	180
14.48333	181
14.49167	183
14.50000	184
14.50833	185
14.51667	186
14.52500	187
14.53333	187
14.54167	188
14.55000	189
14.55833	190
14.56667	190
14.57500	190
14.58333	190
14.59167	190
14.60000	191
14.60833	191
14.61667	191
14.62500	191
14.63333	191
14.64167	191
14.65000	191
14.65833	191
14.66667	190
14.67500	190
14.68333	190
14.69167	190
14.70000	190
14.70833	189
14.71667	189
14.72500	189
14.73333	189
14.74167	188
14.75000	188
14.75833	188
14.76667	188
14.77500	188
14.78333	188
14.79167	188
14.80000	188
14.80833	189
14.81667	189
14.82500	189
14.83333	189
14.84167	189
14.85000	190
14.85833	190
14.86667	191
14.87500	191
14.88333	191
14.89167	192
14.90000	192
14.90833	193
14.91667	194
14.92500	195
14.93333	196
14.94167	197
14.95000	199
14.95833	200
14.96667	202
14.97500	204
14.98333	206
14.99167	209
15.00000	212
15.00833	216
15.01667	220
15.02500	225
15.03333	231
15.04167	238
15.05000	245
15.05833	254
15.06667	264
15.07500	275
15.08333	288
15.09167	303
15.10000	319
15.10833	337
15.11667	357
15.12500	379
15.13333	404
15.14167	430
15.15000	457
15.15833	487
15.16667	517
15.17500	549
15.18333	581
15.19167	614
15.20000	647
15.20833	679
15.21667	711
15.22500	741
15.23333	770
15.24167	796
15.25000	819
15.25833	840
15.26667	857
15.27500	871
15.28333	880
15.29167	886
15.30000	887
15.30833	885
15.31667	878
15.32500	867
15.33333	853
15.34167	835
15.35000	814
15.35833	790
15.36667	763
15.37500	735
15.38333	705
15.39167	674
15.40000	642
15.40833	609
15.41667	575
15.42500	542
15.43333	509
15.44167	477
15.45000	446
15.45833	415
15.46667	386
15.47500	358
15.48333	332
15.49167	307
15.50000	283
15.50833	261
15.51667	240
15.52500	221
15.53333	204
15.54167	187
15.55000	171
15.55833	157
15.56667	143
15.57500	131
15.58333	119
15.59167	109
15.60000	99
15.60833	90
15.61667	81
15.62500	74
15.63333	67
15.64167	61
15.65000	55
15.65833	49
15.66667	44
15.67500	40
15.68333	36
15.69167	32
15.70000	29
15.70833	26
15.71667	23
15.72500	21
15.73333	18
15.74167	16
15.75000	14
15.75833	12
15.76667	10
15.77500	9
15.78333	8
15.79167	7
15.80000	6
15.80833	5
15.81667	5
15.82500	5
15.83333	4
15.84167	4
15.85000	5
15.85833	6
15.86667	7
15.87500	8
15.88333	10
15.89167	11
15.90000	13
15.90833	16
15.91667	19
15.92500	22
15.93333	27
15.94167	32
15.95000	38
15.95833	44
15.96667	53
15.97500	61
15.98333	70
15.99167	81
16.00000	91
16.00833	103
16.01667	116
16.02500	130
16.03333	144
16.04167	159
16.05000	175
16.05833	190
16.06667	205
16.07500	220
16.08333	235
16.09167	250
16.10000	263
16.10833	276
16.11667	288
16.12500	299
16.13333	308
16.14167	315
16.15000	321
16.15833	325
16.16667	327
16.17500	328
16.18333	327
16.19167	325
16.20000	321
16.20833	316
16.21667	310
16.22500	302
16.23333	293
16.24167	284
16.25000	274
16.25833	264
16.26667	253
16.27500	243
16.28333	232
16.29167	222
16.30000	212
16.30833	202
16.31667	193
16.32500	185
16.33333	178
16.34167	172
16.35000	167
16.35833	162
16.36667	159
16.37500	156
16.38333	154
16.39167	153
16.40000	153
16.40833	153
16.41667	155
16.42500	158
16.43333	161
16.44167	166
16.45000	171
16.45833	177
16.46667	184
16.47500	192
16.48333	200
16.49167	208
16.50000	218
16.50833	228
16.51667	239
16.52500	250
16.53333	261
16.54167	273
16.55000	285
16.55833	297
16.56667	309
16.57500	320
16.58333	332
16.59167	342
16.60000	353
16.60833	363
16.61667	372
16.62500	380
16.63333	387
16.64167	393
16.65000	397
16.65833	400
16.66667	401
16.67500	401
16.68333	399
16.69167	396
16.70000	391
16.70833	385
16.71667	377
16.72500	368
16.73333	358
16.74167	347
16.75000	335
16.75833	322
16.76667	309
16.77500	295
16.78333	281
16.79167	266
16.80000	251
16.80833	237
16.81667	222
16.82500	207
16.83333	193
16.84167	179
16.85000	166
16.85833	153
16.86667	141
16.87500	130
16.88333	119
16.89167	108
16.90000	98
16.90833	89
16.91667	80
16.92500	72
16.93333	64
16.94167	57
16.95000	50
16.95833	45
16.96667	39
16.97500	34
16.98333	29
16.99167	24
17.00000	20
17.00833	16
17.01667	12
17.02500	9
17.03333	6
17.04167	3
17.05000	0
17.05833	-2
17.06667	-5
17.07500	-7
17.08333	-10
17.09167	-11
17.10000	-13
17.10833	-15
17.11667	-16
17.12500	-17
17.13333	-18
17.14167	-20
17.15000	-21
17.15833	-21
17.16667	-22
17.17500	-23
17.18333	-24
17.19167	-25
17.20000	-26
17.20833	-27
17.21667	-27
17.22500	-28
17.23333	-29
17.24167	-29
17.25000	-30
17.25833	-30
17.26667	-30
17.27500	-31
17.28333	-31
17.29167	-32
17.30000	-32
17.30833	-33
17.31667	-33
17.32500	-34
17.33333	-34
17.34167	-34
17.35000	-33
17.35833	-33
17.36667	-33
17.37500	-33
17.38333	-32
17.39167	-32
17.40000	-32
17.40833	-31
17.41667	-31
17.42500	-30
17.43333	-30
17.44167	-29
17.45000	-29
17.45833	-28
17.46667	-28
17.47500	-27
17.48333	-26
17.49167	-26
17.50000	-25
17.50833	-23
17.51667	-23
17.52500	-22
17.53333	-21
17.54167	-20
17.55000	-19
17.55833	-18
17.56667	-16
17.57500	-15
17.58333	-14
17.59167	-12
17.60000	-11
17.60833	-10
17.61667	-8
17.62500	-6
17.63333	-4
17.64167	-1
17.65000	2
17.65833	5
17.66667	8
17.67500	12
17.68333	17
17.69167	21
17.70000	26
17.70833	31
17.71667	37
17.72500	43
17.73333	49
17.74167	57
17.75000	64
17.75833	73
17.76667	83
17.77500	93
17.78333	105
17.79167	118
17.80000	132
17.80833	148
17.81667	164
17.82500	183
17.83333	203
17.84167	226
17.85000	251
17.85833	279
17.86667	309
17.87500	342
17.88333	379
17.89167	418
17.90000	462
17.90833	509
17.91667	560
17.92500	615
17.93333	674
17.94167	737
17.95000	804
17.95833	876
17.96667	952
17.97500	1032
17.98333	1115
17.99167	1201
18.00000	1290
18.00833	1381
18.01667	1474
18.02500	1567
18.03333	1661
18.04167	1753
18.05000	1845
18.05833	1933
18.06667	2018
18.07500	2098
18.08333	2173
18.09167	2242
18.10000	2305
18.10833	2359
18.11667	2405
18.12500	2443
18.13333	2472
18.14167	2490
18.15000	2499
18.15833	2499
18.16667	2489
18.17500	2469
18.18333	2441
18.19167	2404
18.20000	2358
18.20833	2306
18.21667	2246
18.22500	2181
18.23333	2111
18.24167	2036
18.25000	1958
18.25833	1878
18.26667	1795
18.27500	1711
18.28333	1627
18.29167	1543
18.30000	1460
18.30833	1378
18.31667	1298
18.32500	1220
18.33333	1145
18.34167	1073
18.35000	1004
18.35833	938
18.36667	876
18.37500	817
18.38333	761
18.39167	709
18.40000	661
18.40833	615
18.41667	573
18.42500	534
18.43333	498
18.44167	464
18.45000	433
18.45833	404
18.46667	377
18.47500	353
18.48333	332
18.49167	312
18.50000	294
18.50833	278
18.51667	263
18.52500	249
18.53333	236
18.54167	225
18.55000	215
18.55833	206
18.56667	198
18.57500	191
18.58333	185
18.59167	180
18.60000	175
18.60833	171
18.61667	168
18.62500	166
18.63333	164
18.64167	164
18.65000	164
18.65833	164
18.66667	166
18.67500	168
18.68333	171
18.69167	175
18.70000	179
18.70833	183
18.71667	189
18.72500	195
18.73333	202
18.74167	209
18.75000	217
18.75833	225
18.76667	233
18.77500	242
18.78333	252
18.79167	261
18.80000	271
18.80833	282
18.81667	292
18.82500	303
18.83333	313
18.84167	324
18.85000	334
18.85833	343
18.86667	352
18.87500	361
18.88333	368
18.89167	375
18.90000	381
18.90833	386
18.91667	391
18.92500	394
18.93333	397
18.94167	398
18.95000	399
18.95833	398
18.96667	397
18.97500	394
18.98333	390
18.99167	386
19.00000	380
19.00833	374
19.01667	367
19.02500	359
19.03333	351
19.04167	343
19.05000	334
19.05833	325
19.06667	315
19.07500	305
19.08333	295
19.09167	285
19.10000	275
19.10833	265
19.11667	256
19.12500	246
19.13333	237
19.14167	229
19.15000	220
19.15833	212
19.16667	205
19.17500	197
19.18333	190
19.19167	183
19.20000	176
19.20833	170
19.21667	165
19.22500	160
19.23333	156
19.24167	152
19.25000	148
19.25833	145
19.26667	142
19.27500	139
19.28333	137
19.29167	135
19.30000	133
19.30833	131
19.31667	130
19.32500	128
19.33333	128
19.34167	127
19.35000	126
19.35833	126
19.36667	126
19.37500	126
19.38333	126
19.39167	126
19.40000	127
19.40833	127
19.41667	128
19.42500	129
19.43333	130
19.44167	131
19.45000	132
19.45833	132
19.46667	133
19.47500	134
19.48333	135
19.49167	135
19.50000	137
19.50833	137
19.51667	138
19.52500	138
19.53333	139
19.54167	140
19.55000	141
19.55833	142
19.56667	143
19.57500	144
19.58333	145
19.59167	145
19.60000	146
19.60833	146
19.61667	147
19.62500	148
19.63333	149
19.64167	150
19.65000	150
19.65833	151
19.66667	152
19.67500	152
19.68333	153
19.69167	153
19.70000	154
19.70833	154
19.71667	155
19.72500	156
19.73333	156
19.74167	157
19.75000	158
19.75833	158
19.76667	159
19.77500	159
19.78333	160
19.79167	160
19.80000	161
19.80833	161
19.81667	161
19.82500	162
19.83333	163
19.84167	163
19.85000	163
19.85833	164
19.86667	165
19.87500	166
19.88333	167
19.89167	167
19.90000	168
19.90833	168
19.91667	169
19.92500	169
19.93333	170
19.94167	171
19.95000	171
19.95833	172
19.96667	172
19.97500	172
19.98333	173
19.99167	174
20.00000	174
20.00833	175
20.01667	176
20.02500	176
20.03333	177
20.04167	178
20.05000	178
20.05833	179
20.06667	180
20.07500	181
20.08333	182
20.09167	183
20.10000	184
20.10833	185
20.11667	186
20.12500	187
20.13333	188
20.14167	188
20.15000	189
20.15833	189
20.16667	190
20.17500	191
20.18333	192
20.19167	193
20.20000	194
20.20833	195
20.21667	197
20.22500	198
20.23333	199
20.24167	200
20.25000	201
20.25833	202
20.26667	203
20.27500	205
20.28333	206
20.29167	208
20.30000	209
20.30833	211
20.31667	212
20.32500	214
20.33333	216
20.34167	218
20.35000	220
20.35833	223
20.36667	225
20.37500	227
20.38333	230
20.39167	232
20.40000	234
20.40833	237
20.41667	240
20.42500	243
20.43333	247
20.44167	250
20.45000	254
20.45833	258
20.46667	262
20.47500	267
20.48333	271
20.49167	276
20.50000	281
20.50833	287
20.51667	293
20.52500	300
20.53333	308
20.54167	315
20.55000	324
20.55833	333
20.56667	342
20.57500	352
20.58333	363
20.59167	375
20.60000	387
20.60833	399
20.61667	413
20.62500	428
20.63333	444
20.64167	461
20.65000	480
20.65833	500
20.66667	521
20.67500	543
20.68333	566
20.69167	591
20.70000	617
20.70833	645
20.71667	674
20.72500	704
20.73333	735
20.74167	767
20.75000	800
20.75833	834
20.76667	870
20.77500	906
20.78333	943
20.79167	981
20.80000	1019
20.80833	1058
20.81667	1096
20.82500	1135
20.83333	1174
20.84167	1213
20.85000	1251
20.85833	1289
20.86667	1325
20.87500	1362
20.88333	1397
20.89167	1432
20.90000	1465
20.90833	1499
20.91667	1531
20.92500	1563
20.93333	1594
20.94167	1624
20.95000	1653
20.95833	1681
20.96667	1709
20.97500	1737
20.98333	1764
20.99167	1792
21.00000	1819
21.00833	1848
21.01667	1876
21.02500	1906
21.03333	1936
21.04167	1968
21.05000	2002
21.05833	2038
21.06667	2077
21.07500	2118
21.08333	2163
21.09167	2212
21.10000	2265
21.10833	2322
21.11667	2384
21.12500	2452
21.13333	2526
21.14167	2608
21.15000	2696
21.15833	2793
21.16667	2898
21.17500	3013
21.18333	3137
21.19167	3272
21.20000	3419
21.20833	3577
21.21667	3748
21.22500	3933
21.23333	4131
21.24167	4343
21.25000	4569
21.25833	4810
21.26667	5066
21.27500	5336
21.28333	5621
21.29167	5921
21.30000	6233
21.30833	6559
21.31667	6897
21.32500	7247
21.33333	7606
21.34167	7974
21.35000	8348
21.35833	8728
21.36667	9111
21.37500	9496
21.38333	9880
21.39167	10261
21.40000	10636
21.40833	11004
21.41667	11361
21.42500	11706
21.43333	12035
21.44167	12346
21.45000	12638
21.45833	12907
21.46667	13153
21.47500	13374
21.48333	13567
21.49167	13732
21.50000	13868
21.50833	13973
21.51667	14047
21.52500	14089
21.53333	14100
21.54167	14080
21.55000	14027
21.55833	13945
21.56667	13833
21.57500	13692
21.58333	13524
21.59167	13330
21.60000	13112
21.60833	12871
21.61667	12610
21.62500	12331
21.63333	12034
21.64167	11722
21.65000	11398
21.65833	11064
21.66667	10720
21.67500	10369
21.68333	10013
21.69167	9654
21.70000	9294
21.70833	8934
21.71667	8576
21.72500	8222
21.73333	7873
21.74167	7529
21.75000	7192
21.75833	6862
21.76667	6542
21.77500	6230
21.78333	5928
21.79167	5637
21.80000	5356
21.80833	5085
21.81667	4826
21.82500	4577
21.83333	4340
21.84167	4114
21.85000	3898
21.85833	3693
21.86667	3498
21.87500	3313
21.88333	3137
21.89167	2971
21.90000	2815
21.90833	2667
21.91667	2527
21.92500	2396
21.93333	2271
21.94167	2154
21.95000	2045
21.95833	1941
21.96667	1844
21.97500	1753
21.98333	1668
21.99167	1587
22.00000	1512
22.00833	1440
22.01667	1374
22.02500	1311
22.03333	1253
22.04167	1198
22.05000	1147
22.05833	1099
22.06667	1055
22.07500	1013
22.08333	974
22.09167	938
22.10000	905
22.10833	873
22.11667	844
22.12500	817
22.13333	793
22.14167	770
22.15000	748
22.15833	728
22.16667	711
22.17500	694
22.18333	680
22.19167	666
22.20000	654
22.20833	643
22.21667	632
22.22500	623
22.23333	615
22.24167	607
22.25000	601
22.25833	595
22.26667	589
22.27500	585
22.28333	581
22.29167	578
22.30000	575
22.30833	572
22.31667	570
22.32500	568
22.33333	567
22.34167	565
22.35000	563
22.35833	562
22.36667	561
22.37500	560
22.38333	558
22.39167	557
22.40000	555
22.40833	553
22.41667	551
22.42500	549
22.43333	547
22.44167	544
22.45000	541
22.45833	538
22.46667	535
22.47500	531
22.48333	527
22.49167	523
22.50000	519
22.50833	514
22.51667	509
22.52500	504
22.53333	498
22.54167	492
22.55000	486
22.55833	480
22.56667	474
22.57500	467
22.58333	461
22.59167	454
22.60000	446
22.60833	439
22.61667	432
22.62500	424
22.63333	417
22.64167	410
22.65000	403
22.65833	396
22.66667	390
22.67500	383
22.68333	376
22.69167	369
22.70000	363
22.70833	357
22.71667	351
22.72500	345
22.73333	340
22.74167	335
22.75000	330
22.75833	326
22.76667	322
22.77500	318
22.78333	314
22.79167	310
22.80000	307
22.80833	305
22.81667	303
22.82500	302
22.83333	300
22.84167	299
22.85000	298
22.85833	298
22.86667	298
22.87500	298
22.88333	299
22.89167	300
22.90000	301
22.90833	302
22.91667	304
22.92500	305
22.93333	307
22.94167	308
22.95000	311
22.95833	313
22.96667	315
22.97500	317
22.98333	320
22.99167	323
23.00000	326
23.00833	329
23.01667	333
23.02500	336
23.03333	339
23.04167	342
23.05000	345
23.05833	347
23.06667	350
23.07500	352
23.08333	355
23.09167	357
23.10000	360
23.10833	362
23.11667	364
23.12500	366
23.13333	368
23.14167	370
23.15000	371
23.15833	373
23.16667	374
23.17500	376
23.18333	376
23.19167	377
23.20000	377
23.20833	378
23.21667	378
23.22500	377
23.23333	378
23.24167	378
23.25000	378
23.25833	378
23.26667	378
23.27500	378
23.28333	378
23.29167	377
23.30000	377
23.30833	377
23.31667	376
23.32500	376
23.33333	375
23.34167	374
23.35000	374
23.35833	373
23.36667	373
23.37500	372
23.38333	372
23.39167	371
23.40000	370
23.40833	369
23.41667	368
23.42500	368
23.43333	367
23.44167	366
23.45000	365
23.45833	365
23.46667	364
23.47500	363
23.48333	362
23.49167	362
23.50000	361
23.50833	360
23.51667	360
23.52500	359
23.53333	359
23.54167	359
23.55000	359
23.55833	358
23.56667	358
23.57500	358
23.58333	358
23.59167	357
23.60000	357
23.60833	357
23.61667	357
23.62500	357
23.63333	356
23.64167	356
23.65000	356
23.65833	355
23.66667	355
23.67500	355
23.68333	354
23.69167	354
23.70000	354
23.70833	354
23.71667	354
23.72500	353
23.73333	353
23.74167	353
23.75000	353
23.75833	353
23.76667	353
23.77500	354
23.78333	354
23.79167	354
23.80000	354
23.80833	355
23.81667	355
23.82500	355
23.83333	355
23.84167	355
23.85000	355
23.85833	355
23.86667	355
23.87500	355
23.88333	355
23.89167	355
23.90000	355
23.90833	355
23.91667	355
23.92500	355
23.93333	355
23.94167	355
23.95000	355
23.95833	354
23.96667	354
23.97500	354
23.98333	354
23.99167	354
24.00000	354
24.00833	354
24.01667	354
24.02500	354
24.03333	353
24.04167	353
24.05000	353
24.05833	353
24.06667	352
24.07500	352
24.08333	351
24.09167	350
24.10000	350
24.10833	350
24.11667	349
24.12500	348
24.13333	347
24.14167	346
24.15000	345
24.15833	344
24.16667	344
24.17500	342
24.18333	341
24.19167	339
24.20000	337
24.20833	335
24.21667	333
24.22500	332
24.23333	330
24.24167	329
24.25000	327
24.25833	325
24.26667	323
24.27500	321
24.28333	318
24.29167	316
24.30000	314
24.30833	312
24.31667	310
24.32500	308
24.33333	306
24.34167	304
24.35000	301
24.35833	299
24.36667	297
24.37500	295
24.38333	293
24.39167	291
24.40000	289
24.40833	287
24.41667	285
24.42500	283
24.43333	281
24.44167	280
24.45000	278
24.45833	276
24.46667	275
24.47500	274
24.48333	272
24.49167	271
24.50000	270
24.50833	268
24.51667	267
24.52500	266
24.53333	265
24.54167	264
24.55000	263
24.55833	262
24.56667	261
24.57500	260
24.58333	260
24.59167	259
24.60000	259
24.60833	259
24.61667	259
24.62500	259
24.63333	259
24.64167	259
24.65000	259
24.65833	259
24.66667	260
24.67500	260
24.68333	260
24.69167	260
24.70000	260
24.70833	260
24.71667	261
24.72500	261
24.73333	261
24.74167	261
24.75000	262
24.75833	262
24.76667	263
24.77500	263
24.78333	263
24.79167	263
24.80000	264
24.80833	264
24.81667	265
24.82500	265
24.83333	265
24.84167	265
24.85000	266
24.85833	266
24.86667	267
24.87500	267
24.88333	267
24.89167	267
24.90000	267
24.90833	267
24.91667	268
24.92500	268
24.93333	268
24.94167	268
24.95000	268
24.95833	268
24.96667	268
24.97500	267
24.98333	267
24.99167	267
25.00000	266
25.00833	266
25.01667	266
25.02500	265
25.03333	265
25.04167	264
25.05000	264
25.05833	264
25.06667	264
25.07500	263
25.08333	263
25.09167	263
25.10000	262
25.10833	262
25.11667	262
25.12500	262
25.13333	261
25.14167	261
25.15000	260
25.15833	260
25.16667	259
25.17500	259
25.18333	259
25.19167	259
25.20000	259
25.20833	259
25.21667	259
25.22500	258
25.23333	258
25.24167	258
25.25000	257
25.25833	257
25.26667	256
25.27500	256
25.28333	255
25.29167	254
25.30000	254
25.30833	254
25.31667	254
25.32500	254
25.33333	254
25.34167	254
25.35000	254
25.35833	254
25.36667	254
25.37500	254
25.38333	254
25.39167	254
25.40000	253
25.40833	253
25.41667	254
25.42500	254
25.43333	254
25.44167	254
25.45000	254
25.45833	255
25.46667	255
25.47500	255
25.48333	255
25.49167	254
25.50000	254
25.50833	255
25.51667	255
25.52500	256
25.53333	256
25.54167	256
25.55000	256
25.55833	256
25.56667	257
25.57500	257
25.58333	257
25.59167	257
25.60000	258
25.60833	258
25.61667	259
25.62500	260
25.63333	260
25.64167	261
25.65000	261
25.65833	261
25.66667	262
25.67500	262
25.68333	263
25.69167	263
25.70000	264
25.70833	264
25.71667	264
25.72500	264
25.73333	265
25.74167	266
25.75000	266
25.75833	266
25.76667	267
25.77500	268
25.78333	268
25.79167	269
25.80000	270
25.80833	271
25.81667	271
25.82500	272
25.83333	273
25.84167	273
25.85000	275
25.85833	275
25.86667	277
25.87500	278
25.88333	279
25.89167	280
25.90000	281
25.90833	282
25.91667	284
25.92500	286
25.93333	288
25.94167	290
25.95000	293
25.95833	295
25.96667	298
25.97500	301
25.98333	304
25.99167	307
26.00000	310
26.00833	314
26.01667	318
26.02500	323
26.03333	327
26.04167	332
26.05000	338
26.05833	344
26.06667	350
26.07500	356
26.08333	364
26.09167	371
26.10000	378
26.10833	386
26.11667	395
26.12500	405
26.13333	414
26.14167	425
26.15000	437
26.15833	449
26.16667	462
26.17500	475
26.18333	489
26.19167	504
26.20000	520
26.20833	537
26.21667	555
26.22500	573
26.23333	593
26.24167	613
26.25000	635
26.25833	657
26.26667	680
26.27500	704
26.28333	728
26.29167	754
26.30000	780
26.30833	806
26.31667	833
26.32500	861
26.33333	889
26.34167	918
26.35000	947
26.35833	977
26.36667	1007
26.37500	1037
26.38333	1067
26.39167	1096
26.40000	1126
26.40833	1155
26.41667	1182
26.42500	1210
26.43333	1236
26.44167	1261
26.45000	1285
26.45833	1308
26.46667	1329
26.47500	1349
26.48333	1368
26.49167	1384
26.50000	1398
26.50833	1411
26.51667	1422
26.52500	1431
26.53333	1437
26.54167	1441
26.55000	1443
26.55833	1443
26.56667	1440
26.57500	1435
26.58333	1428
26.59167	1419
26.60000	1408
26.60833	1396
26.61667	1381
26.62500	1364
26.63333	1347
26.64167	1327
26.65000	1306
26.65833	1283
26.66667	1260
26.67500	1235
26.68333	1209
26.69167	1183
26.70000	1156
26.70833	1128
26.71667	1100
26.72500	1072
26.73333	1043
26.74167	1014
26.75000	986
26.75833	957
26.76667	928
26.77500	899
26.78333	871
26.79167	843
26.80000	817
26.80833	790
26.81667	765
26.82500	740
26.83333	715
26.84167	692
26.85000	669
26.85833	647
26.86667	625
26.87500	605
26.88333	585
26.89167	567
26.90000	549
26.90833	531
26.91667	515
26.92500	498
26.93333	482
26.94167	467
26.95000	453
26.95833	439
26.96667	426
26.97500	414
26.98333	402
26.99167	391
27.00000	381
27.00833	371
27.01667	361
27.02500	351
27.03333	342
27.04167	333
27.05000	325
27.05833	317
27.06667	309
27.07500	302
27.08333	295
27.09167	288
27.10000	281
27.10833	274
27.11667	269
27.12500	263
27.13333	257
27.14167	251
27.15000	246
27.15833	240
27.16667	235
27.17500	230
27.18333	225
27.19167	220
27.20000	215
27.20833	210
27.21667	206
27.22500	201
27.23333	197
27.24167	193
27.25000	189
27.25833	185
27.26667	181
27.27500	177
27.28333	173
27.29167	170
27.30000	166
27.30833	163
27.31667	159
27.32500	157
27.33333	153
27.34167	150
27.35000	147
27.35833	144
27.36667	141
27.37500	138
27.38333	135
27.39167	133
27.40000	130
27.40833	128
27.41667	126
27.42500	124
27.43333	121
27.44167	119
27.45000	117
27.45833	115
27.46667	113
27.47500	110
27.48333	108
27.49167	107
27.50000	105
27.50833	103
27.51667	101
27.52500	99
27.53333	97
27.54167	96
27.55000	94
27.55833	93
27.56667	91
27.57500	90
27.58333	88
27.59167	87
27.60000	86
27.60833	85
27.61667	83
27.62500	82
27.63333	80
27.64167	79
27.65000	78
27.65833	78
27.66667	77
27.67500	76
27.68333	75
27.69167	74
27.70000	73
27.70833	72
27.71667	71
27.72500	70
27.73333	69
27.74167	68
27.75000	67
27.75833	67
27.76667	66
27.77500	65
27.78333	64
27.79167	63
27.80000	62
27.80833	62
27.81667	61
27.82500	60
27.83333	59
27.84167	59
27.85000	58
27.85833	57
27.86667	57
27.87500	56
27.88333	55
27.89167	55
27.90000	54
27.90833	53
27.91667	53
27.92500	52
27.93333	51
27.94167	51
27.95000	50
27.95833	49
27.96667	48
27.97500	48
27.98333	47
27.99167	46
28.00000	46

