R.Time (min)	Intensity
0.00000	-27
0.00833	-27
0.01667	-1
0.02500	-2
0.03333	-3
0.04167	-4
0.05000	-5
0.05833	-6
0.06667	-7
0.07500	-8
0.08333	-9
0.09167	-9
0.10000	-10
0.10833	-10
0.11667	-10
0.12500	-10
0.13333	-11
0.14167	-11
0.15000	-12
0.15833	-13
0.16667	-13
0.17500	-14
0.18333	-14
0.19167	-15
0.20000	-16
0.20833	-16
0.21667	-16
0.22500	-17
0.23333	-18
0.24167	-18
0.25000	-19
0.25833	-20
0.26667	-20
0.27500	-20
0.28333	-21
0.29167	-21
0.30000	-21
0.30833	-22
0.31667	-22
0.32500	-23
0.33333	-23
0.34167	-24
0.35000	-24
0.35833	-24
0.36667	-25
0.37500	-26
0.38333	-27
0.39167	-27
0.40000	-28
0.40833	-28
0.41667	-28
0.42500	-28
0.43333	-29
0.44167	-29
0.45000	-29
0.45833	-30
0.46667	-31
0.47500	-32
0.48333	-33
0.49167	-33
0.50000	-34
0.50833	-34
0.51667	-35
0.52500	-36
0.53333	-36
0.54167	-37
0.55000	-38
0.55833	-38
0.56667	-39
0.57500	-39
0.58333	-39
0.59167	-40
0.60000	-40
0.60833	-40
0.61667	-41
0.62500	-42
0.63333	-42
0.64167	-42
0.65000	-42
0.65833	-42
0.66667	-42
0.67500	-43
0.68333	-43
0.69167	-44
0.70000	-45
0.70833	-45
0.71667	-45
0.72500	-46
0.73333	-46
0.74167	-46
0.75000	-46
0.75833	-46
0.76667	-47
0.77500	-48
0.78333	-49
0.79167	-49
0.80000	-49
0.80833	-49
0.81667	-49
0.82500	-50
0.83333	-50
0.84167	-50
0.85000	-50
0.85833	-51
0.86667	-52
0.87500	-52
0.88333	-53
0.89167	-54
0.90000	-54
0.90833	-55
0.91667	-55
0.92500	-56
0.93333	-57
0.94167	-57
0.95000	-58
0.95833	-58
0.96667	-59
0.97500	-59
0.98333	-59
0.99167	-60
1.00000	-61
1.00833	-61
1.01667	-62
1.02500	-62
1.03333	-63
1.04167	-63
1.05000	-64
1.05833	-64
1.06667	-64
1.07500	-65
1.08333	-65
1.09167	-65
1.10000	-66
1.10833	-67
1.11667	-67
1.12500	-68
1.13333	-68
1.14167	-68
1.15000	-69
1.15833	-70
1.16667	-70
1.17500	-71
1.18333	-71
1.19167	-72
1.20000	-72
1.20833	-73
1.21667	-73
1.22500	-73
1.23333	-73
1.24167	-74
1.25000	-75
1.25833	-75
1.26667	-76
1.27500	-76
1.28333	-76
1.29167	-76
1.30000	-77
1.30833	-77
1.31667	-78
1.32500	-78
1.33333	-79
1.34167	-79
1.35000	-80
1.35833	-80
1.36667	-80
1.37500	-81
1.38333	-81
1.39167	-82
1.40000	-83
1.40833	-83
1.41667	-83
1.42500	-83
1.43333	-83
1.44167	-84
1.45000	-84
1.45833	-85
1.46667	-85
1.47500	-86
1.48333	-86
1.49167	-86
1.50000	-86
1.50833	-87
1.51667	-87
1.52500	-87
1.53333	-87
1.54167	-87
1.55000	-87
1.55833	-88
1.56667	-88
1.57500	-88
1.58333	-88
1.59167	-88
1.60000	-89
1.60833	-89
1.61667	-90
1.62500	-90
1.63333	-91
1.64167	-91
1.65000	-91
1.65833	-91
1.66667	-91
1.67500	-91
1.68333	-91
1.69167	-91
1.70000	-91
1.70833	-91
1.71667	-92
1.72500	-92
1.73333	-92
1.74167	-92
1.75000	-92
1.75833	-92
1.76667	-92
1.77500	-93
1.78333	-93
1.79167	-94
1.80000	-94
1.80833	-95
1.81667	-95
1.82500	-95
1.83333	-96
1.84167	-96
1.85000	-97
1.85833	-97
1.86667	-97
1.87500	-97
1.88333	-97
1.89167	-97
1.90000	-98
1.90833	-98
1.91667	-99
1.92500	-99
1.93333	-99
1.94167	-99
1.95000	-99
1.95833	-100
1.96667	-100
1.97500	-100
1.98333	-100
1.99167	-100
2.00000	-100
2.00833	-100
2.01667	-100
2.02500	-100
2.03333	-101
2.04167	-101
2.05000	-102
2.05833	-102
2.06667	-102
2.07500	-102
2.08333	-103
2.09167	-103
2.10000	-102
2.10833	-102
2.11667	-102
2.12500	-102
2.13333	-102
2.14167	-102
2.15000	-101
2.15833	-101
2.16667	-100
2.17500	-100
2.18333	-100
2.19167	-99
2.20000	-98
2.20833	-97
2.21667	-96
2.22500	-96
2.23333	-96
2.24167	-95
2.25000	-93
2.25833	-93
2.26667	-92
2.27500	-91
2.28333	-90
2.29167	-89
2.30000	-87
2.30833	-85
2.31667	-83
2.32500	-81
2.33333	-79
2.34167	-76
2.35000	-73
2.35833	-71
2.36667	-68
2.37500	-65
2.38333	-62
2.39167	-58
2.40000	-54
2.40833	-50
2.41667	-46
2.42500	-41
2.43333	-36
2.44167	-31
2.45000	-26
2.45833	-21
2.46667	-15
2.47500	-9
2.48333	-2
2.49167	5
2.50000	12
2.50833	20
2.51667	28
2.52500	37
2.53333	47
2.54167	57
2.55000	67
2.55833	78
2.56667	89
2.57500	102
2.58333	114
2.59167	128
2.60000	143
2.60833	158
2.61667	174
2.62500	191
2.63333	209
2.64167	228
2.65000	248
2.65833	269
2.66667	291
2.67500	314
2.68333	338
2.69167	364
2.70000	391
2.70833	419
2.71667	449
2.72500	480
2.73333	513
2.74167	547
2.75000	584
2.75833	622
2.76667	663
2.77500	705
2.78333	750
2.79167	798
2.80000	847
2.80833	900
2.81667	955
2.82500	1012
2.83333	1073
2.84167	1137
2.85000	1204
2.85833	1275
2.86667	1349
2.87500	1427
2.88333	1509
2.89167	1595
2.90000	1685
2.90833	1779
2.91667	1878
2.92500	1981
2.93333	2089
2.94167	2202
2.95000	2320
2.95833	2443
2.96667	2571
2.97500	2704
2.98333	2842
2.99167	2986
3.00000	3135
3.00833	3289
3.01667	3448
3.02500	3612
3.03333	3782
3.04167	3956
3.05000	4135
3.05833	4319
3.06667	4506
3.07500	4697
3.08333	4892
3.09167	5090
3.10000	5291
3.10833	5494
3.11667	5700
3.12500	5906
3.13333	6114
3.14167	6321
3.15000	6528
3.15833	6734
3.16667	6938
3.17500	7140
3.18333	7339
3.19167	7534
3.20000	7724
3.20833	7909
3.21667	8088
3.22500	8261
3.23333	8426
3.24167	8584
3.25000	8733
3.25833	8873
3.26667	9002
3.27500	9122
3.28333	9230
3.29167	9328
3.30000	9413
3.30833	9487
3.31667	9548
3.32500	9596
3.33333	9631
3.34167	9653
3.35000	9663
3.35833	9659
3.36667	9642
3.37500	9612
3.38333	9570
3.39167	9515
3.40000	9448
3.40833	9369
3.41667	9279
3.42500	9177
3.43333	9065
3.44167	8942
3.45000	8809
3.45833	8667
3.46667	8517
3.47500	8359
3.48333	8194
3.49167	8022
3.50000	7844
3.50833	7660
3.51667	7471
3.52500	7278
3.53333	7082
3.54167	6884
3.55000	6682
3.55833	6480
3.56667	6275
3.57500	6071
3.58333	5866
3.59167	5662
3.60000	5460
3.60833	5259
3.61667	5060
3.62500	4863
3.63333	4670
3.64167	4480
3.65000	4292
3.65833	4109
3.66667	3930
3.67500	3755
3.68333	3584
3.69167	3419
3.70000	3258
3.70833	3101
3.71667	2950
3.72500	2804
3.73333	2663
3.74167	2527
3.75000	2396
3.75833	2271
3.76667	2150
3.77500	2034
3.78333	1923
3.79167	1817
3.80000	1716
3.80833	1619
3.81667	1527
3.82500	1440
3.83333	1357
3.84167	1278
3.85000	1204
3.85833	1133
3.86667	1066
3.87500	1002
3.88333	942
3.89167	885
3.90000	832
3.90833	781
3.91667	734
3.92500	689
3.93333	647
3.94167	608
3.95000	571
3.95833	537
3.96667	504
3.97500	473
3.98333	444
3.99167	417
4.00000	391
4.00833	367
4.01667	344
4.02500	323
4.03333	303
4.04167	285
4.05000	267
4.05833	250
4.06667	235
4.07500	220
4.08333	205
4.09167	192
4.10000	180
4.10833	168
4.11667	156
4.12500	145
4.13333	135
4.14167	125
4.15000	116
4.15833	107
4.16667	99
4.17500	90
4.18333	82
4.19167	74
4.20000	66
4.20833	59
4.21667	52
4.22500	45
4.23333	38
4.24167	32
4.25000	26
4.25833	20
4.26667	14
4.27500	9
4.28333	3
4.29167	-3
4.30000	-8
4.30833	-13
4.31667	-18
4.32500	-22
4.33333	-27
4.34167	-32
4.35000	-37
4.35833	-41
4.36667	-46
4.37500	-50
4.38333	-54
4.39167	-58
4.40000	-62
4.40833	-66
4.41667	-70
4.42500	-73
4.43333	-77
4.44167	-80
4.45000	-82
4.45833	-85
4.46667	-88
4.47500	-91
4.48333	-94
4.49167	-96
4.50000	-99
4.50833	-101
4.51667	-103
4.52500	-106
4.53333	-107
4.54167	-110
4.55000	-112
4.55833	-114
4.56667	-116
4.57500	-118
4.58333	-120
4.59167	-121
4.60000	-122
4.60833	-124
4.61667	-125
4.62500	-126
4.63333	-127
4.64167	-127
4.65000	-128
4.65833	-129
4.66667	-130
4.67500	-131
4.68333	-132
4.69167	-132
4.70000	-133
4.70833	-133
4.71667	-134
4.72500	-134
4.73333	-135
4.74167	-135
4.75000	-135
4.75833	-136
4.76667	-136
4.77500	-137
4.78333	-138
4.79167	-138
4.80000	-139
4.80833	-139
4.81667	-139
4.82500	-139
4.83333	-139
4.84167	-140
4.85000	-140
4.85833	-140
4.86667	-140
4.87500	-139
4.88333	-139
4.89167	-139
4.90000	-139
4.90833	-138
4.91667	-138
4.92500	-137
4.93333	-137
4.94167	-137
4.95000	-137
4.95833	-136
4.96667	-136
4.97500	-136
4.98333	-136
4.99167	-136
5.00000	-136
5.00833	-136
5.01667	-136
5.02500	-136
5.03333	-135
5.04167	-135
5.05000	-135
5.05833	-135
5.06667	-135
5.07500	-134
5.08333	-134
5.09167	-134
5.10000	-133
5.10833	-133
5.11667	-133
5.12500	-133
5.13333	-133
5.14167	-133
5.15000	-133
5.15833	-133
5.16667	-133
5.17500	-133
5.18333	-133
5.19167	-133
5.20000	-133
5.20833	-133
5.21667	-133
5.22500	-134
5.23333	-134
5.24167	-134
5.25000	-134
5.25833	-134
5.26667	-135
5.27500	-135
5.28333	-135
5.29167	-135
5.30000	-135
5.30833	-135
5.31667	-136
5.32500	-136
5.33333	-136
5.34167	-136
5.35000	-136
5.35833	-136
5.36667	-137
5.37500	-137
5.38333	-138
5.39167	-138
5.40000	-139
5.40833	-139
5.41667	-140
5.42500	-140
5.43333	-140
5.44167	-140
5.45000	-140
5.45833	-141
5.46667	-141
5.47500	-142
5.48333	-142
5.49167	-142
5.50000	-143
5.50833	-143
5.51667	-143
5.52500	-144
5.53333	-144
5.54167	-144
5.55000	-144
5.55833	-145
5.56667	-145
5.57500	-145
5.58333	-145
5.59167	-145
5.60000	-145
5.60833	-145
5.61667	-145
5.62500	-145
5.63333	-146
5.64167	-146
5.65000	-146
5.65833	-146
5.66667	-146
5.67500	-146
5.68333	-146
5.69167	-146
5.70000	-146
5.70833	-146
5.71667	-146
5.72500	-146
5.73333	-146
5.74167	-146
5.75000	-145
5.75833	-145
5.76667	-145
5.77500	-145
5.78333	-145
5.79167	-145
5.80000	-146
5.80833	-146
5.81667	-146
5.82500	-145
5.83333	-145
5.84167	-145
5.85000	-144
5.85833	-144
5.86667	-144
5.87500	-144
5.88333	-144
5.89167	-145
5.90000	-145
5.90833	-145
5.91667	-146
5.92500	-146
5.93333	-146
5.94167	-146
5.95000	-145
5.95833	-145
5.96667	-145
5.97500	-145
5.98333	-145
5.99167	-145
6.00000	-145
6.00833	-145
6.01667	-145
6.02500	-145
6.03333	-146
6.04167	-146
6.05000	-146
6.05833	-146
6.06667	-147
6.07500	-146
6.08333	-146
6.09167	-146
6.10000	-146
6.10833	-146
6.11667	-146
6.12500	-146
6.13333	-146
6.14167	-146
6.15000	-146
6.15833	-146
6.16667	-146
6.17500	-146
6.18333	-146
6.19167	-147
6.20000	-147
6.20833	-147
6.21667	-147
6.22500	-147
6.23333	-147
6.24167	-146
6.25000	-146
6.25833	-145
6.26667	-145
6.27500	-145
6.28333	-145
6.29167	-145
6.30000	-145
6.30833	-144
6.31667	-144
6.32500	-144
6.33333	-144
6.34167	-144
6.35000	-144
6.35833	-144
6.36667	-144
6.37500	-144
6.38333	-144
6.39167	-143
6.40000	-143
6.40833	-143
6.41667	-144
6.42500	-143
6.43333	-143
6.44167	-143
6.45000	-142
6.45833	-142
6.46667	-142
6.47500	-143
6.48333	-143
6.49167	-143
6.50000	-142
6.50833	-142
6.51667	-143
6.52500	-143
6.53333	-143
6.54167	-143
6.55000	-143
6.55833	-144
6.56667	-143
6.57500	-143
6.58333	-143
6.59167	-143
6.60000	-143
6.60833	-143
6.61667	-143
6.62500	-143
6.63333	-143
6.64167	-143
6.65000	-143
6.65833	-144
6.66667	-144
6.67500	-144
6.68333	-144
6.69167	-144
6.70000	-144
6.70833	-145
6.71667	-146
6.72500	-146
6.73333	-146
6.74167	-146
6.75000	-146
6.75833	-146
6.76667	-146
6.77500	-146
6.78333	-146
6.79167	-145
6.80000	-146
6.80833	-146
6.81667	-146
6.82500	-146
6.83333	-146
6.84167	-146
6.85000	-146
6.85833	-147
6.86667	-147
6.87500	-147
6.88333	-147
6.89167	-147
6.90000	-146
6.90833	-146
6.91667	-145
6.92500	-146
6.93333	-145
6.94167	-145
6.95000	-144
6.95833	-143
6.96667	-142
6.97500	-142
6.98333	-141
6.99167	-140
7.00000	-139
7.00833	-138
7.01667	-137
7.02500	-136
7.03333	-134
7.04167	-132
7.05000	-129
7.05833	-127
7.06667	-123
7.07500	-120
7.08333	-116
7.09167	-111
7.10000	-106
7.10833	-100
7.11667	-92
7.12500	-84
7.13333	-75
7.14167	-65
7.15000	-53
7.15833	-40
7.16667	-25
7.17500	-9
7.18333	8
7.19167	28
7.20000	49
7.20833	71
7.21667	95
7.22500	120
7.23333	147
7.24167	174
7.25000	202
7.25833	229
7.26667	255
7.27500	279
7.28333	297
7.29167	310
7.30000	314
7.30833	310
7.31667	296
7.32500	275
7.33333	250
7.34167	228
7.35000	217
7.35833	231
7.36667	284
7.37500	394
7.38333	581
7.39167	865
7.40000	1265
7.40833	1801
7.41667	2485
7.42500	3330
7.43333	4341
7.44167	5516
7.45000	6846
7.45833	8312
7.46667	9886
7.47500	11530
7.48333	13194
7.49167	14821
7.50000	16344
7.50833	17697
7.51667	18814
7.52500	19640
7.53333	20133
7.54167	20272
7.55000	20057
7.55833	19511
7.56667	18674
7.57500	17601
7.58333	16357
7.59167	15006
7.60000	13610
7.60833	12222
7.61667	10888
7.62500	9639
7.63333	8496
7.64167	7472
7.65000	6569
7.65833	5784
7.66667	5109
7.67500	4532
7.68333	4043
7.69167	3629
7.70000	3278
7.70833	2979
7.71667	2724
7.72500	2504
7.73333	2313
7.74167	2145
7.75000	1995
7.75833	1862
7.76667	1741
7.77500	1632
7.78333	1532
7.79167	1440
7.80000	1354
7.80833	1275
7.81667	1201
7.82500	1131
7.83333	1066
7.84167	1004
7.85000	945
7.85833	889
7.86667	836
7.87500	785
7.88333	737
7.89167	692
7.90000	650
7.90833	610
7.91667	573
7.92500	538
7.93333	506
7.94167	477
7.95000	451
7.95833	428
7.96667	408
7.97500	390
7.98333	375
7.99167	362
8.00000	351
8.00833	342
8.01667	334
8.02500	326
8.03333	320
8.04167	313
8.05000	307
8.05833	301
8.06667	294
8.07500	287
8.08333	280
8.09167	271
8.10000	263
8.10833	254
8.11667	246
8.12500	237
8.13333	228
8.14167	220
8.15000	211
8.15833	203
8.16667	195
8.17500	187
8.18333	180
8.19167	174
8.20000	168
8.20833	162
8.21667	157
8.22500	152
8.23333	148
8.24167	145
8.25000	141
8.25833	138
8.26667	136
8.27500	134
8.28333	133
8.29167	131
8.30000	129
8.30833	128
8.31667	127
8.32500	126
8.33333	126
8.34167	125
8.35000	124
8.35833	124
8.36667	123
8.37500	122
8.38333	122
8.39167	121
8.40000	120
8.40833	119
8.41667	117
8.42500	116
8.43333	115
8.44167	114
8.45000	113
8.45833	111
8.46667	110
8.47500	109
8.48333	108
8.49167	106
8.50000	104
8.50833	102
8.51667	101
8.52500	100
8.53333	98
8.54167	96
8.55000	94
8.55833	92
8.56667	90
8.57500	89
8.58333	88
8.59167	87
8.60000	86
8.60833	86
8.61667	85
8.62500	85
8.63333	85
8.64167	86
8.65000	87
8.65833	89
8.66667	91
8.67500	94
8.68333	97
8.69167	100
8.70000	104
8.70833	108
8.71667	113
8.72500	118
8.73333	123
8.74167	128
8.75000	133
8.75833	139
8.76667	145
8.77500	150
8.78333	156
8.79167	161
8.80000	167
8.80833	173
8.81667	180
8.82500	187
8.83333	195
8.84167	204
8.85000	216
8.85833	229
8.86667	245
8.87500	264
8.88333	288
8.89167	317
8.90000	351
8.90833	392
8.91667	441
8.92500	498
8.93333	564
8.94167	638
8.95000	723
8.95833	818
8.96667	921
8.97500	1033
8.98333	1151
8.99167	1276
9.00000	1404
9.00833	1533
9.01667	1661
9.02500	1786
9.03333	1904
9.04167	2013
9.05000	2112
9.05833	2196
9.06667	2266
9.07500	2319
9.08333	2354
9.09167	2371
9.10000	2371
9.10833	2353
9.11667	2318
9.12500	2269
9.13333	2206
9.14167	2131
9.15000	2046
9.15833	1954
9.16667	1856
9.17500	1754
9.18333	1651
9.19167	1547
9.20000	1444
9.20833	1344
9.21667	1246
9.22500	1153
9.23333	1066
9.24167	983
9.25000	907
9.25833	836
9.26667	771
9.27500	712
9.28333	659
9.29167	611
9.30000	568
9.30833	530
9.31667	496
9.32500	468
9.33333	442
9.34167	421
9.35000	404
9.35833	391
9.36667	382
9.37500	377
9.38333	376
9.39167	380
9.40000	389
9.40833	404
9.41667	425
9.42500	455
9.43333	493
9.44167	543
9.45000	605
9.45833	684
9.46667	782
9.47500	904
9.48333	1052
9.49167	1233
9.50000	1451
9.50833	1711
9.51667	2019
9.52500	2380
9.53333	2800
9.54167	3282
9.55000	3830
9.55833	4445
9.56667	5129
9.57500	5881
9.58333	6697
9.59167	7573
9.60000	8499
9.60833	9467
9.61667	10466
9.62500	11482
9.63333	12501
9.64167	13505
9.65000	14481
9.65833	15411
9.66667	16280
9.67500	17075
9.68333	17783
9.69167	18394
9.70000	18900
9.70833	19298
9.71667	19585
9.72500	19762
9.73333	19834
9.74167	19807
9.75000	19691
9.75833	19495
9.76667	19232
9.77500	18915
9.78333	18557
9.79167	18172
9.80000	17774
9.80833	17374
9.81667	16985
9.82500	16616
9.83333	16276
9.84167	15974
9.85000	15715
9.85833	15505
9.86667	15346
9.87500	15240
9.88333	15190
9.89167	15195
9.90000	15254
9.90833	15367
9.91667	15530
9.92500	15742
9.93333	16000
9.94167	16301
9.95000	16641
9.95833	17019
9.96667	17429
9.97500	17869
9.98333	18335
9.99167	18825
10.00000	19334
10.00833	19859
10.01667	20396
10.02500	20942
10.03333	21490
10.04167	22033
10.05000	22560
10.05833	23055
10.06667	23493
10.07500	23847
10.08333	24078
10.09167	24148
10.10000	24018
10.10833	23655
10.11667	23041
10.12500	22172
10.13333	21065
10.14167	19753
10.15000	18286
10.15833	16718
10.16667	15107
10.17500	13507
10.18333	11964
10.19167	10515
10.20000	9182
10.20833	7980
10.21667	6914
10.22500	5981
10.23333	5174
10.24167	4481
10.25000	3892
10.25833	3394
10.26667	2974
10.27500	2620
10.28333	2322
10.29167	2072
10.30000	1859
10.30833	1679
10.31667	1525
10.32500	1393
10.33333	1279
10.34167	1179
10.35000	1092
10.35833	1013
10.36667	943
10.37500	879
10.38333	822
10.39167	769
10.40000	720
10.40833	676
10.41667	635
10.42500	597
10.43333	563
10.44167	531
10.45000	503
10.45833	477
10.46667	454
10.47500	435
10.48333	418
10.49167	405
10.50000	394
10.50833	387
10.51667	383
10.52500	382
10.53333	384
10.54167	389
10.55000	398
10.55833	411
10.56667	428
10.57500	448
10.58333	472
10.59167	501
10.60000	535
10.60833	575
10.61667	621
10.62500	674
10.63333	736
10.64167	809
10.65000	895
10.65833	995
10.66667	1115
10.67500	1257
10.68333	1427
10.69167	1630
10.70000	1872
10.70833	2161
10.71667	2505
10.72500	2913
10.73333	3394
10.74167	3958
10.75000	4615
10.75833	5374
10.76667	6244
10.77500	7230
10.78333	8336
10.79167	9564
10.80000	10913
10.80833	12376
10.81667	13942
10.82500	15598
10.83333	17324
10.84167	19097
10.85000	20889
10.85833	22672
10.86667	24412
10.87500	26077
10.88333	27634
10.89167	29052
10.90000	30301
10.90833	31356
10.91667	32196
10.92500	32806
10.93333	33177
10.94167	33303
10.95000	33189
10.95833	32843
10.96667	32279
10.97500	31514
10.98333	30570
10.99167	29471
11.00000	28244
11.00833	26914
11.01667	25509
11.02500	24055
11.03333	22576
11.04167	21093
11.05000	19626
11.05833	18193
11.06667	16806
11.07500	15478
11.08333	14216
11.09167	13027
11.10000	11915
11.10833	10881
11.11667	9925
11.12500	9046
11.13333	8242
11.14167	7509
11.15000	6844
11.15833	6241
11.16667	5697
11.17500	5206
11.18333	4763
11.19167	4364
11.20000	4006
11.20833	3683
11.21667	3392
11.22500	3130
11.23333	2892
11.24167	2677
11.25000	2482
11.25833	2304
11.26667	2141
11.27500	1991
11.28333	1854
11.29167	1727
11.30000	1609
11.30833	1500
11.31667	1399
11.32500	1305
11.33333	1217
11.34167	1135
11.35000	1058
11.35833	986
11.36667	919
11.37500	856
11.38333	797
11.39167	742
11.40000	690
11.40833	642
11.41667	597
11.42500	556
11.43333	518
11.44167	483
11.45000	451
11.45833	421
11.46667	394
11.47500	368
11.48333	346
11.49167	325
11.50000	306
11.50833	289
11.51667	274
11.52500	260
11.53333	247
11.54167	236
11.55000	225
11.55833	216
11.56667	207
11.57500	199
11.58333	191
11.59167	184
11.60000	177
11.60833	171
11.61667	165
11.62500	159
11.63333	154
11.64167	149
11.65000	145
11.65833	141
11.66667	137
11.67500	134
11.68333	131
11.69167	129
11.70000	127
11.70833	125
11.71667	124
11.72500	122
11.73333	121
11.74167	121
11.75000	120
11.75833	119
11.76667	118
11.77500	117
11.78333	116
11.79167	115
11.80000	113
11.80833	112
11.81667	109
11.82500	107
11.83333	104
11.84167	101
11.85000	97
11.85833	93
11.86667	88
11.87500	83
11.88333	78
11.89167	73
11.90000	68
11.90833	62
11.91667	57
11.92500	51
11.93333	47
11.94167	42
11.95000	38
11.95833	34
11.96667	29
11.97500	25
11.98333	22
11.99167	19
12.00000	16
12.00833	14
12.01667	12
12.02500	11
12.03333	9
12.04167	8
12.05000	8
12.05833	8
12.06667	8
12.07500	8
12.08333	8
12.09167	8
12.10000	8
12.10833	8
12.11667	8
12.12500	8
12.13333	8
12.14167	8
12.15000	7
12.15833	6
12.16667	4
12.17500	2
12.18333	1
12.19167	-1
12.20000	-3
12.20833	-5
12.21667	-7
12.22500	-9
12.23333	-11
12.24167	-14
12.25000	-16
12.25833	-19
12.26667	-21
12.27500	-22
12.28333	-24
12.29167	-25
12.30000	-27
12.30833	-29
12.31667	-31
12.32500	-33
12.33333	-34
12.34167	-36
12.35000	-38
12.35833	-40
12.36667	-41
12.37500	-43
12.38333	-44
12.39167	-45
12.40000	-47
12.40833	-48
12.41667	-49
12.42500	-50
12.43333	-51
12.44167	-53
12.45000	-54
12.45833	-55
12.46667	-55
12.47500	-56
12.48333	-56
12.49167	-57
12.50000	-57
12.50833	-57
12.51667	-57
12.52500	-57
12.53333	-57
12.54167	-57
12.55000	-56
12.55833	-56
12.56667	-55
12.57500	-55
12.58333	-54
12.59167	-53
12.60000	-52
12.60833	-51
12.61667	-50
12.62500	-49
12.63333	-48
12.64167	-46
12.65000	-45
12.65833	-44
12.66667	-43
12.67500	-41
12.68333	-40
12.69167	-39
12.70000	-38
12.70833	-36
12.71667	-35
12.72500	-34
12.73333	-33
12.74167	-32
12.75000	-32
12.75833	-31
12.76667	-31
12.77500	-31
12.78333	-30
12.79167	-30
12.80000	-29
12.80833	-29
12.81667	-28
12.82500	-28
12.83333	-28
12.84167	-28
12.85000	-28
12.85833	-28
12.86667	-27
12.87500	-27
12.88333	-27
12.89167	-27
12.90000	-26
12.90833	-26
12.91667	-26
12.92500	-25
12.93333	-25
12.94167	-24
12.95000	-23
12.95833	-21
12.96667	-20
12.97500	-19
12.98333	-18
12.99167	-17
13.00000	-15
13.00833	-14
13.01667	-12
13.02500	-11
13.03333	-10
13.04167	-9
13.05000	-8
13.05833	-7
13.06667	-7
13.07500	-6
13.08333	-6
13.09167	-5
13.10000	-5
13.10833	-5
13.11667	-5
13.12500	-5
13.13333	-5
13.14167	-5
13.15000	-6
13.15833	-6
13.16667	-6
13.17500	-7
13.18333	-8
13.19167	-9
13.20000	-9
13.20833	-10
13.21667	-11
13.22500	-12
13.23333	-12
13.24167	-12
13.25000	-12
13.25833	-12
13.26667	-12
13.27500	-12
13.28333	-11
13.29167	-11
13.30000	-11
13.30833	-10
13.31667	-10
13.32500	-9
13.33333	-8
13.34167	-8
13.35000	-7
13.35833	-6
13.36667	-5
13.37500	-4
13.38333	-3
13.39167	-1
13.40000	-0
13.40833	1
13.41667	2
13.42500	3
13.43333	5
13.44167	6
13.45000	8
13.45833	9
13.46667	11
13.47500	14
13.48333	16
13.49167	19
13.50000	22
13.50833	25
13.51667	29
13.52500	33
13.53333	37
13.54167	42
13.55000	47
13.55833	54
13.56667	61
13.57500	68
13.58333	77
13.59167	87
13.60000	97
13.60833	109
13.61667	122
13.62500	135
13.63333	150
13.64167	166
13.65000	182
13.65833	199
13.66667	216
13.67500	234
13.68333	251
13.69167	268
13.70000	285
13.70833	301
13.71667	316
13.72500	330
13.73333	343
13.74167	355
13.75000	364
13.75833	373
13.76667	380
13.77500	385
13.78333	390
13.79167	393
13.80000	395
13.80833	396
13.81667	396
13.82500	396
13.83333	396
13.84167	395
13.85000	395
13.85833	394
13.86667	393
13.87500	393
13.88333	394
13.89167	395
13.90000	396
13.90833	397
13.91667	398
13.92500	399
13.93333	400
13.94167	401
13.95000	401
13.95833	401
13.96667	401
13.97500	399
13.98333	397
13.99167	393
14.00000	389
14.00833	385
14.01667	379
14.02500	372
14.03333	364
14.04167	356
14.05000	348
14.05833	339
14.06667	329
14.07500	319
14.08333	310
14.09167	300
14.10000	290
14.10833	280
14.11667	271
14.12500	261
14.13333	253
14.14167	244
14.15000	237
14.15833	229
14.16667	222
14.17500	216
14.18333	210
14.19167	205
14.20000	200
14.20833	195
14.21667	191
14.22500	188
14.23333	185
14.24167	182
14.25000	180
14.25833	178
14.26667	176
14.27500	174
14.28333	173
14.29167	172
14.30000	172
14.30833	172
14.31667	172
14.32500	173
14.33333	173
14.34167	175
14.35000	176
14.35833	177
14.36667	178
14.37500	179
14.38333	181
14.39167	182
14.40000	183
14.40833	185
14.41667	187
14.42500	188
14.43333	190
14.44167	191
14.45000	193
14.45833	194
14.46667	196
14.47500	198
14.48333	199
14.49167	200
14.50000	201
14.50833	202
14.51667	203
14.52500	204
14.53333	204
14.54167	205
14.55000	205
14.55833	205
14.56667	205
14.57500	205
14.58333	205
14.59167	205
14.60000	205
14.60833	205
14.61667	205
14.62500	204
14.63333	204
14.64167	204
14.65000	203
14.65833	203
14.66667	202
14.67500	202
14.68333	202
14.69167	202
14.70000	202
14.70833	201
14.71667	201
14.72500	201
14.73333	201
14.74167	201
14.75000	202
14.75833	202
14.76667	202
14.77500	202
14.78333	201
14.79167	201
14.80000	201
14.80833	201
14.81667	201
14.82500	201
14.83333	201
14.84167	201
14.85000	201
14.85833	201
14.86667	201
14.87500	201
14.88333	202
14.89167	202
14.90000	202
14.90833	203
14.91667	204
14.92500	204
14.93333	205
14.94167	206
14.95000	208
14.95833	209
14.96667	211
14.97500	213
14.98333	215
14.99167	218
15.00000	222
15.00833	226
15.01667	231
15.02500	236
15.03333	243
15.04167	250
15.05000	258
15.05833	268
15.06667	278
15.07500	290
15.08333	303
15.09167	318
15.10000	335
15.10833	354
15.11667	374
15.12500	397
15.13333	421
15.14167	448
15.15000	475
15.15833	504
15.16667	534
15.17500	565
15.18333	597
15.19167	629
15.20000	661
15.20833	693
15.21667	724
15.22500	753
15.23333	780
15.24167	805
15.25000	828
15.25833	848
15.26667	865
15.27500	878
15.28333	887
15.29167	892
15.30000	893
15.30833	890
15.31667	883
15.32500	872
15.33333	857
15.34167	839
15.35000	818
15.35833	794
15.36667	767
15.37500	739
15.38333	709
15.39167	677
15.40000	645
15.40833	612
15.41667	580
15.42500	547
15.43333	515
15.44167	483
15.45000	452
15.45833	422
15.46667	394
15.47500	367
15.48333	341
15.49167	316
15.50000	293
15.50833	271
15.51667	251
15.52500	232
15.53333	214
15.54167	197
15.55000	182
15.55833	167
15.56667	154
15.57500	141
15.58333	129
15.59167	119
15.60000	109
15.60833	100
15.61667	92
15.62500	85
15.63333	78
15.64167	72
15.65000	66
15.65833	61
15.66667	56
15.67500	52
15.68333	48
15.69167	45
15.70000	42
15.70833	39
15.71667	37
15.72500	34
15.73333	32
15.74167	30
15.75000	29
15.75833	27
15.76667	25
15.77500	24
15.78333	23
15.79167	22
15.80000	22
15.80833	22
15.81667	22
15.82500	21
15.83333	21
15.84167	21
15.85000	22
15.85833	22
15.86667	22
15.87500	23
15.88333	24
15.89167	26
15.90000	28
15.90833	30
15.91667	33
15.92500	37
15.93333	41
15.94167	46
15.95000	51
15.95833	58
15.96667	65
15.97500	73
15.98333	83
15.99167	93
16.00000	104
16.00833	116
16.01667	128
16.02500	141
16.03333	156
16.04167	170
16.05000	185
16.05833	200
16.06667	216
16.07500	231
16.08333	245
16.09167	259
16.10000	273
16.10833	286
16.11667	297
16.12500	307
16.13333	316
16.14167	323
16.15000	329
16.15833	333
16.16667	335
16.17500	335
16.18333	334
16.19167	331
16.20000	327
16.20833	322
16.21667	315
16.22500	308
16.23333	299
16.24167	290
16.25000	280
16.25833	270
16.26667	260
16.27500	249
16.28333	238
16.29167	228
16.30000	218
16.30833	208
16.31667	199
16.32500	190
16.33333	183
16.34167	177
16.35000	171
16.35833	166
16.36667	162
16.37500	159
16.38333	157
16.39167	155
16.40000	155
16.40833	155
16.41667	156
16.42500	157
16.43333	159
16.44167	163
16.45000	167
16.45833	171
16.46667	176
16.47500	181
16.48333	188
16.49167	195
16.50000	202
16.50833	210
16.51667	218
16.52500	226
16.53333	235
16.54167	244
16.55000	253
16.55833	262
16.56667	271
16.57500	279
16.58333	288
16.59167	297
16.60000	305
16.60833	313
16.61667	319
16.62500	325
16.63333	330
16.64167	334
16.65000	337
16.65833	339
16.66667	339
16.67500	339
16.68333	337
16.69167	334
16.70000	330
16.70833	325
16.71667	318
16.72500	311
16.73333	303
16.74167	294
16.75000	283
16.75833	272
16.76667	261
16.77500	249
16.78333	236
16.79167	224
16.80000	212
16.80833	200
16.81667	188
16.82500	176
16.83333	164
16.84167	152
16.85000	141
16.85833	131
16.86667	121
16.87500	111
16.88333	102
16.89167	94
16.90000	85
16.90833	77
16.91667	70
16.92500	62
16.93333	56
16.94167	49
16.95000	44
16.95833	38
16.96667	33
16.97500	29
16.98333	24
16.99167	21
17.00000	17
17.00833	14
17.01667	11
17.02500	8
17.03333	5
17.04167	2
17.05000	-1
17.05833	-3
17.06667	-5
17.07500	-7
17.08333	-8
17.09167	-10
17.10000	-11
17.10833	-13
17.11667	-14
17.12500	-15
17.13333	-17
17.14167	-18
17.15000	-19
17.15833	-20
17.16667	-20
17.17500	-21
17.18333	-22
17.19167	-22
17.20000	-23
17.20833	-24
17.21667	-25
17.22500	-25
17.23333	-26
17.24167	-26
17.25000	-27
17.25833	-27
17.26667	-28
17.27500	-28
17.28333	-28
17.29167	-28
17.30000	-28
17.30833	-28
17.31667	-28
17.32500	-28
17.33333	-28
17.34167	-28
17.35000	-28
17.35833	-28
17.36667	-28
17.37500	-28
17.38333	-28
17.39167	-28
17.40000	-28
17.40833	-28
17.41667	-28
17.42500	-28
17.43333	-28
17.44167	-27
17.45000	-27
17.45833	-26
17.46667	-26
17.47500	-26
17.48333	-26
17.49167	-26
17.50000	-25
17.50833	-25
17.51667	-24
17.52500	-23
17.53333	-23
17.54167	-22
17.55000	-21
17.55833	-20
17.56667	-19
17.57500	-18
17.58333	-17
17.59167	-16
17.60000	-14
17.60833	-13
17.61667	-11
17.62500	-8
17.63333	-6
17.64167	-3
17.65000	0
17.65833	3
17.66667	7
17.67500	10
17.68333	14
17.69167	18
17.70000	22
17.70833	26
17.71667	31
17.72500	37
17.73333	43
17.74167	49
17.75000	57
17.75833	65
17.76667	74
17.77500	84
17.78333	95
17.79167	107
17.80000	120
17.80833	134
17.81667	149
17.82500	166
17.83333	184
17.84167	205
17.85000	227
17.85833	253
17.86667	281
17.87500	311
17.88333	345
17.89167	381
17.90000	421
17.90833	464
17.91667	510
17.92500	561
17.93333	615
17.94167	673
17.95000	735
17.95833	800
17.96667	870
17.97500	943
17.98333	1019
17.99167	1098
18.00000	1178
18.00833	1261
18.01667	1346
18.02500	1431
18.03333	1516
18.04167	1600
18.05000	1683
18.05833	1763
18.06667	1839
18.07500	1912
18.08333	1979
18.09167	2042
18.10000	2098
18.10833	2147
18.11667	2188
18.12500	2221
18.13333	2246
18.14167	2262
18.15000	2269
18.15833	2268
18.16667	2258
18.17500	2239
18.18333	2213
18.19167	2178
18.20000	2136
18.20833	2087
18.21667	2032
18.22500	1972
18.23333	1907
18.24167	1838
18.25000	1766
18.25833	1692
18.26667	1616
18.27500	1539
18.28333	1462
18.29167	1385
18.30000	1309
18.30833	1234
18.31667	1162
18.32500	1091
18.33333	1023
18.34167	957
18.35000	894
18.35833	835
18.36667	778
18.37500	725
18.38333	675
18.39167	628
18.40000	584
18.40833	543
18.41667	505
18.42500	470
18.43333	437
18.44167	407
18.45000	379
18.45833	354
18.46667	331
18.47500	309
18.48333	290
18.49167	272
18.50000	256
18.50833	241
18.51667	227
18.52500	214
18.53333	203
18.54167	193
18.55000	184
18.55833	175
18.56667	168
18.57500	162
18.58333	157
18.59167	152
18.60000	148
18.60833	145
18.61667	142
18.62500	141
18.63333	140
18.64167	139
18.65000	139
18.65833	139
18.66667	140
18.67500	142
18.68333	145
18.69167	149
18.70000	153
18.70833	158
18.71667	163
18.72500	169
18.73333	176
18.74167	184
18.75000	192
18.75833	200
18.76667	209
18.77500	218
18.78333	228
18.79167	238
18.80000	249
18.80833	260
18.81667	270
18.82500	281
18.83333	292
18.84167	302
18.85000	312
18.85833	322
18.86667	331
18.87500	339
18.88333	347
18.89167	353
18.90000	359
18.90833	364
18.91667	368
18.92500	371
18.93333	373
18.94167	374
18.95000	373
18.95833	372
18.96667	370
18.97500	367
18.98333	363
18.99167	358
19.00000	352
19.00833	345
19.01667	338
19.02500	330
19.03333	321
19.04167	312
19.05000	303
19.05833	294
19.06667	284
19.07500	274
19.08333	264
19.09167	254
19.10000	244
19.10833	234
19.11667	225
19.12500	216
19.13333	207
19.14167	198
19.15000	190
19.15833	182
19.16667	174
19.17500	167
19.18333	160
19.19167	153
19.20000	147
19.20833	141
19.21667	136
19.22500	131
19.23333	127
19.24167	123
19.25000	119
19.25833	116
19.26667	112
19.27500	109
19.28333	106
19.29167	103
19.30000	101
19.30833	99
19.31667	97
19.32500	95
19.33333	94
19.34167	93
19.35000	92
19.35833	91
19.36667	92
19.37500	92
19.38333	92
19.39167	92
19.40000	93
19.40833	93
19.41667	94
19.42500	94
19.43333	95
19.44167	96
19.45000	96
19.45833	97
19.46667	98
19.47500	100
19.48333	100
19.49167	101
19.50000	102
19.50833	103
19.51667	104
19.52500	105
19.53333	106
19.54167	107
19.55000	108
19.55833	109
19.56667	110
19.57500	111
19.58333	111
19.59167	112
19.60000	112
19.60833	113
19.61667	114
19.62500	114
19.63333	114
19.64167	115
19.65000	116
19.65833	116
19.66667	117
19.67500	117
19.68333	118
19.69167	118
19.70000	119
19.70833	119
19.71667	119
19.72500	120
19.73333	121
19.74167	122
19.75000	123
19.75833	124
19.76667	125
19.77500	126
19.78333	127
19.79167	128
19.80000	129
19.80833	130
19.81667	130
19.82500	131
19.83333	132
19.84167	132
19.85000	133
19.85833	134
19.86667	135
19.87500	136
19.88333	137
19.89167	137
19.90000	138
19.90833	139
19.91667	140
19.92500	141
19.93333	142
19.94167	142
19.95000	143
19.95833	143
19.96667	144
19.97500	145
19.98333	146
19.99167	146
20.00000	147
20.00833	148
20.01667	148
20.02500	148
20.03333	149
20.04167	149
20.05000	150
20.05833	151
20.06667	151
20.07500	152
20.08333	153
20.09167	154
20.10000	156
20.10833	157
20.11667	158
20.12500	159
20.13333	160
20.14167	161
20.15000	161
20.15833	162
20.16667	163
20.17500	163
20.18333	164
20.19167	165
20.20000	166
20.20833	167
20.21667	168
20.22500	170
20.23333	172
20.24167	173
20.25000	175
20.25833	177
20.26667	178
20.27500	179
20.28333	181
20.29167	182
20.30000	183
20.30833	185
20.31667	187
20.32500	188
20.33333	190
20.34167	192
20.35000	195
20.35833	197
20.36667	199
20.37500	202
20.38333	204
20.39167	206
20.40000	209
20.40833	212
20.41667	215
20.42500	218
20.43333	222
20.44167	225
20.45000	229
20.45833	233
20.46667	237
20.47500	241
20.48333	246
20.49167	252
20.50000	258
20.50833	264
20.51667	270
20.52500	277
20.53333	284
20.54167	291
20.55000	299
20.55833	308
20.56667	318
20.57500	328
20.58333	339
20.59167	351
20.60000	364
20.60833	377
20.61667	392
20.62500	408
20.63333	424
20.64167	442
20.65000	461
20.65833	481
20.66667	502
20.67500	525
20.68333	549
20.69167	574
20.70000	601
20.70833	628
20.71667	658
20.72500	689
20.73333	721
20.74167	754
20.75000	788
20.75833	823
20.76667	859
20.77500	895
20.78333	933
20.79167	971
20.80000	1010
20.80833	1049
20.81667	1088
20.82500	1126
20.83333	1165
20.84167	1204
20.85000	1242
20.85833	1280
20.86667	1317
20.87500	1354
20.88333	1390
20.89167	1425
20.90000	1459
20.90833	1492
20.91667	1524
20.92500	1556
20.93333	1587
20.94167	1617
20.95000	1646
20.95833	1675
20.96667	1704
20.97500	1732
20.98333	1760
20.99167	1788
21.00000	1816
21.00833	1844
21.01667	1873
21.02500	1904
21.03333	1935
21.04167	1968
21.05000	2004
21.05833	2041
21.06667	2081
21.07500	2123
21.08333	2169
21.09167	2219
21.10000	2273
21.10833	2332
21.11667	2396
21.12500	2466
21.13333	2542
21.14167	2625
21.15000	2716
21.15833	2815
21.16667	2924
21.17500	3041
21.18333	3168
21.19167	3307
21.20000	3457
21.20833	3620
21.21667	3795
21.22500	3983
21.23333	4185
21.24167	4401
21.25000	4632
21.25833	4878
21.26667	5139
21.27500	5414
21.28333	5704
21.29167	6008
21.30000	6327
21.30833	6659
21.31667	7003
21.32500	7359
21.33333	7723
21.34167	8097
21.35000	8478
21.35833	8864
21.36667	9252
21.37500	9642
21.38333	10031
21.39167	10416
21.40000	10795
21.40833	11166
21.41667	11527
21.42500	11874
21.43333	12205
21.44167	12518
21.45000	12811
21.45833	13082
21.46667	13327
21.47500	13547
21.48333	13739
21.49167	13902
21.50000	14034
21.50833	14136
21.51667	14206
21.52500	14245
21.53333	14251
21.54167	14225
21.55000	14168
21.55833	14081
21.56667	13964
21.57500	13819
21.58333	13646
21.59167	13447
21.60000	13223
21.60833	12977
21.61667	12710
21.62500	12424
21.63333	12121
21.64167	11804
21.65000	11474
21.65833	11134
21.66667	10785
21.67500	10430
21.68333	10070
21.69167	9707
21.70000	9343
21.70833	8979
21.71667	8618
21.72500	8259
21.73333	7906
21.74167	7559
21.75000	7219
21.75833	6887
21.76667	6564
21.77500	6249
21.78333	5945
21.79167	5651
21.80000	5367
21.80833	5095
21.81667	4833
21.82500	4583
21.83333	4344
21.84167	4116
21.85000	3899
21.85833	3693
21.86667	3497
21.87500	3311
21.88333	3136
21.89167	2969
21.90000	2811
21.90833	2663
21.91667	2523
21.92500	2391
21.93333	2267
21.94167	2151
21.95000	2041
21.95833	1938
21.96667	1841
21.97500	1750
21.98333	1664
21.99167	1583
22.00000	1508
22.00833	1437
22.01667	1370
22.02500	1308
22.03333	1250
22.04167	1195
22.05000	1144
22.05833	1096
22.06667	1051
22.07500	1010
22.08333	971
22.09167	935
22.10000	901
22.10833	870
22.11667	841
22.12500	815
22.13333	790
22.14167	768
22.15000	747
22.15833	727
22.16667	710
22.17500	694
22.18333	679
22.19167	666
22.20000	654
22.20833	644
22.21667	634
22.22500	626
22.23333	619
22.24167	613
22.25000	607
22.25833	601
22.26667	597
22.27500	593
22.28333	589
22.29167	587
22.30000	584
22.30833	582
22.31667	580
22.32500	578
22.33333	576
22.34167	574
22.35000	572
22.35833	570
22.36667	568
22.37500	566
22.38333	565
22.39167	563
22.40000	562
22.40833	560
22.41667	557
22.42500	554
22.43333	552
22.44167	549
22.45000	547
22.45833	544
22.46667	540
22.47500	536
22.48333	532
22.49167	528
22.50000	524
22.50833	519
22.51667	514
22.52500	509
22.53333	503
22.54167	497
22.55000	491
22.55833	485
22.56667	478
22.57500	472
22.58333	465
22.59167	459
22.60000	452
22.60833	445
22.61667	438
22.62500	430
22.63333	423
22.64167	416
22.65000	409
22.65833	401
22.66667	394
22.67500	387
22.68333	381
22.69167	374
22.70000	367
22.70833	361
22.71667	355
22.72500	349
22.73333	343
22.74167	338
22.75000	332
22.75833	327
22.76667	323
22.77500	319
22.78333	315
22.79167	312
22.80000	309
22.80833	306
22.81667	304
22.82500	301
22.83333	299
22.84167	298
22.85000	297
22.85833	297
22.86667	296
22.87500	296
22.88333	297
22.89167	298
22.90000	299
22.90833	301
22.91667	302
22.92500	304
22.93333	306
22.94167	308
22.95000	311
22.95833	313
22.96667	315
22.97500	318
22.98333	321
22.99167	324
23.00000	327
23.00833	330
23.01667	333
23.02500	336
23.03333	339
23.04167	341
23.05000	344
23.05833	347
23.06667	349
23.07500	351
23.08333	354
23.09167	355
23.10000	357
23.10833	359
23.11667	361
23.12500	362
23.13333	364
23.14167	366
23.15000	367
23.15833	369
23.16667	370
23.17500	371
23.18333	372
23.19167	373
23.20000	374
23.20833	374
23.21667	375
23.22500	376
23.23333	376
23.24167	377
23.25000	377
23.25833	377
23.26667	378
23.27500	378
23.28333	379
23.29167	379
23.30000	379
23.30833	379
23.31667	378
23.32500	378
23.33333	377
23.34167	377
23.35000	377
23.35833	376
23.36667	376
23.37500	375
23.38333	374
23.39167	373
23.40000	373
23.40833	373
23.41667	372
23.42500	372
23.43333	371
23.44167	371
23.45000	370
23.45833	369
23.46667	369
23.47500	368
23.48333	367
23.49167	367
23.50000	366
23.50833	366
23.51667	365
23.52500	364
23.53333	363
23.54167	363
23.55000	362
23.55833	362
23.56667	362
23.57500	362
23.58333	362
23.59167	362
23.60000	362
23.60833	362
23.61667	362
23.62500	363
23.63333	363
23.64167	363
23.65000	363
23.65833	363
23.66667	363
23.67500	363
23.68333	363
23.69167	363
23.70000	362
23.70833	362
23.71667	362
23.72500	362
23.73333	362
23.74167	362
23.75000	362
23.75833	361
23.76667	361
23.77500	361
23.78333	361
23.79167	361
23.80000	361
23.80833	361
23.81667	360
23.82500	360
23.83333	359
23.84167	359
23.85000	359
23.85833	359
23.86667	360
23.87500	360
23.88333	360
23.89167	361
23.90000	361
23.90833	362
23.91667	362
23.92500	362
23.93333	362
23.94167	362
23.95000	362
23.95833	362
23.96667	362
23.97500	362
23.98333	362
23.99167	363
24.00000	363
24.00833	363
24.01667	363
24.02500	362
24.03333	362
24.04167	362
24.05000	361
24.05833	361
24.06667	361
24.07500	361
24.08333	360
24.09167	360
24.10000	359
24.10833	358
24.11667	357
24.12500	356
24.13333	355
24.14167	354
24.15000	352
24.15833	351
24.16667	350
24.17500	348
24.18333	347
24.19167	346
24.20000	344
24.20833	343
24.21667	341
24.22500	339
24.23333	337
24.24167	336
24.25000	333
24.25833	331
24.26667	329
24.27500	327
24.28333	325
24.29167	323
24.30000	321
24.30833	319
24.31667	317
24.32500	315
24.33333	314
24.34167	311
24.35000	309
24.35833	307
24.36667	305
24.37500	303
24.38333	301
24.39167	299
24.40000	297
24.40833	295
24.41667	294
24.42500	292
24.43333	290
24.44167	288
24.45000	287
24.45833	286
24.46667	284
24.47500	283
24.48333	281
24.49167	280
24.50000	278
24.50833	277
24.51667	275
24.52500	274
24.53333	274
24.54167	273
24.55000	272
24.55833	272
24.56667	272
24.57500	271
24.58333	271
24.59167	270
24.60000	269
24.60833	269
24.61667	269
24.62500	269
24.63333	269
24.64167	269
24.65000	269
24.65833	269
24.66667	270
24.67500	270
24.68333	271
24.69167	272
24.70000	272
24.70833	272
24.71667	273
24.72500	273
24.73333	273
24.74167	274
24.75000	274
24.75833	275
24.76667	275
24.77500	275
24.78333	276
24.79167	276
24.80000	277
24.80833	277
24.81667	278
24.82500	278
24.83333	279
24.84167	279
24.85000	280
24.85833	280
24.86667	280
24.87500	280
24.88333	281
24.89167	281
24.90000	281
24.90833	282
24.91667	282
24.92500	282
24.93333	282
24.94167	281
24.95000	281
24.95833	281
24.96667	280
24.97500	280
24.98333	279
24.99167	279
25.00000	279
25.00833	279
25.01667	279
25.02500	278
25.03333	278
25.04167	278
25.05000	277
25.05833	277
25.06667	276
25.07500	275
25.08333	275
25.09167	274
25.10000	274
25.10833	273
25.11667	273
25.12500	272
25.13333	271
25.14167	271
25.15000	270
25.15833	270
25.16667	269
25.17500	269
25.18333	268
25.19167	268
25.20000	268
25.20833	268
25.21667	268
25.22500	268
25.23333	268
25.24167	268
25.25000	268
25.25833	268
25.26667	268
25.27500	269
25.28333	269
25.29167	269
25.30000	268
25.30833	268
25.31667	268
25.32500	268
25.33333	268
25.34167	268
25.35000	268
25.35833	268
25.36667	267
25.37500	267
25.38333	267
25.39167	267
25.40000	268
25.40833	268
25.41667	268
25.42500	267
25.43333	267
25.44167	267
25.45000	267
25.45833	267
25.46667	267
25.47500	267
25.48333	268
25.49167	268
25.50000	268
25.50833	268
25.51667	268
25.52500	268
25.53333	268
25.54167	268
25.55000	268
25.55833	269
25.56667	269
25.57500	269
25.58333	269
25.59167	269
25.60000	269
25.60833	269
25.61667	270
25.62500	270
25.63333	271
25.64167	271
25.65000	272
25.65833	273
25.66667	273
25.67500	274
25.68333	275
25.69167	275
25.70000	276
25.70833	277
25.71667	277
25.72500	278
25.73333	278
25.74167	278
25.75000	279
25.75833	279
25.76667	280
25.77500	281
25.78333	282
25.79167	282
25.80000	283
25.80833	283
25.81667	284
25.82500	284
25.83333	284
25.84167	285
25.85000	286
25.85833	287
25.86667	288
25.87500	289
25.88333	289
25.89167	291
25.90000	292
25.90833	293
25.91667	294
25.92500	296
25.93333	297
25.94167	299
25.95000	301
25.95833	303
25.96667	305
25.97500	308
25.98333	311
25.99167	314
26.00000	317
26.00833	321
26.01667	325
26.02500	329
26.03333	333
26.04167	338
26.05000	343
26.05833	348
26.06667	354
26.07500	359
26.08333	365
26.09167	372
26.10000	379
26.10833	387
26.11667	395
26.12500	403
26.13333	412
26.14167	422
26.15000	433
26.15833	443
26.16667	455
26.17500	466
26.18333	479
26.19167	492
26.20000	506
26.20833	520
26.21667	535
26.22500	551
26.23333	568
26.24167	585
26.25000	603
26.25833	622
26.26667	642
26.27500	662
26.28333	684
26.29167	706
26.30000	729
26.30833	752
26.31667	776
26.32500	801
26.33333	826
26.34167	851
26.35000	877
26.35833	904
26.36667	930
26.37500	956
26.38333	982
26.39167	1008
26.40000	1034
26.40833	1059
26.41667	1083
26.42500	1107
26.43333	1131
26.44167	1153
26.45000	1174
26.45833	1195
26.46667	1213
26.47500	1231
26.48333	1247
26.49167	1261
26.50000	1274
26.50833	1285
26.51667	1294
26.52500	1302
26.53333	1308
26.54167	1311
26.55000	1313
26.55833	1313
26.56667	1311
26.57500	1308
26.58333	1303
26.59167	1295
26.60000	1285
26.60833	1273
26.61667	1260
26.62500	1245
26.63333	1229
26.64167	1212
26.65000	1193
26.65833	1173
26.66667	1153
26.67500	1131
26.68333	1108
26.69167	1085
26.70000	1061
26.70833	1037
26.71667	1012
26.72500	987
26.73333	962
26.74167	937
26.75000	912
26.75833	887
26.76667	862
26.77500	838
26.78333	814
26.79167	790
26.80000	766
26.80833	743
26.81667	721
26.82500	699
26.83333	678
26.84167	658
26.85000	638
26.85833	618
26.86667	599
26.87500	582
26.88333	564
26.89167	548
26.90000	532
26.90833	516
26.91667	501
26.92500	487
26.93333	474
26.94167	461
26.95000	449
26.95833	437
26.96667	425
26.97500	414
26.98333	404
26.99167	393
27.00000	383
27.00833	373
27.01667	363
27.02500	354
27.03333	346
27.04167	338
27.05000	329
27.05833	321
27.06667	314
27.07500	307
27.08333	300
27.09167	293
27.10000	287
27.10833	280
27.11667	274
27.12500	269
27.13333	263
27.14167	258
27.15000	253
27.15833	248
27.16667	243
27.17500	238
27.18333	234
27.19167	229
27.20000	225
27.20833	220
27.21667	216
27.22500	212
27.23333	208
27.24167	204
27.25000	200
27.25833	197
27.26667	193
27.27500	190
27.28333	186
27.29167	183
27.30000	180
27.30833	176
27.31667	173
27.32500	170
27.33333	166
27.34167	163
27.35000	160
27.35833	156
27.36667	153
27.37500	150
27.38333	148
27.39167	145
27.40000	142
27.40833	139
27.41667	136
27.42500	134
27.43333	131
27.44167	129
27.45000	127
27.45833	125
27.46667	123
27.47500	121
27.48333	119
27.49167	117
27.50000	115
27.50833	113
27.51667	111
27.52500	110
27.53333	108
27.54167	106
27.55000	105
27.55833	103
27.56667	101
27.57500	99
27.58333	98
27.59167	97
27.60000	96
27.60833	95
27.61667	94
27.62500	93
27.63333	91
27.64167	90
27.65000	89
27.65833	88
27.66667	87
27.67500	86
27.68333	85
27.69167	84
27.70000	83
27.70833	82
27.71667	82
27.72500	81
27.73333	80
27.74167	79
27.75000	78
27.75833	78
27.76667	77
27.77500	77
27.78333	76
27.79167	75
27.80000	74
27.80833	73
27.81667	73
27.82500	72
27.83333	71
27.84167	70
27.85000	69
27.85833	69
27.86667	68
27.87500	67
27.88333	66
27.89167	66
27.90000	65
27.90833	64
27.91667	64
27.92500	63
27.93333	61
27.94167	60
27.95000	59
27.95833	58
27.96667	57
27.97500	56
27.98333	55
27.99167	54
28.00000	54

