R.Time (min)	Intensity
0.00000	-38
0.00833	-38
0.01667	-1
0.02500	-1
0.03333	-2
0.04167	-3
0.05000	-3
0.05833	-4
0.06667	-5
0.07500	-6
0.08333	-7
0.09167	-7
0.10000	-8
0.10833	-8
0.11667	-9
0.12500	-9
0.13333	-10
0.14167	-11
0.15000	-12
0.15833	-12
0.16667	-13
0.17500	-13
0.18333	-14
0.19167	-14
0.20000	-14
0.20833	-15
0.21667	-15
0.22500	-16
0.23333	-17
0.24167	-17
0.25000	-18
0.25833	-19
0.26667	-20
0.27500	-21
0.28333	-22
0.29167	-23
0.30000	-23
0.30833	-23
0.31667	-24
0.32500	-24
0.33333	-25
0.34167	-25
0.35000	-26
0.35833	-27
0.36667	-27
0.37500	-28
0.38333	-29
0.39167	-29
0.40000	-30
0.40833	-30
0.41667	-30
0.42500	-31
0.43333	-32
0.44167	-32
0.45000	-32
0.45833	-33
0.46667	-34
0.47500	-34
0.48333	-35
0.49167	-36
0.50000	-36
0.50833	-37
0.51667	-37
0.52500	-38
0.53333	-39
0.54167	-39
0.55000	-40
0.55833	-40
0.56667	-41
0.57500	-42
0.58333	-42
0.59167	-43
0.60000	-44
0.60833	-45
0.61667	-45
0.62500	-46
0.63333	-46
0.64167	-47
0.65000	-47
0.65833	-48
0.66667	-49
0.67500	-49
0.68333	-50
0.69167	-50
0.70000	-51
0.70833	-51
0.71667	-52
0.72500	-52
0.73333	-53
0.74167	-53
0.75000	-54
0.75833	-55
0.76667	-55
0.77500	-56
0.78333	-56
0.79167	-57
0.80000	-58
0.80833	-58
0.81667	-59
0.82500	-59
0.83333	-60
0.84167	-61
0.85000	-61
0.85833	-61
0.86667	-61
0.87500	-61
0.88333	-62
0.89167	-62
0.90000	-63
0.90833	-63
0.91667	-63
0.92500	-63
0.93333	-64
0.94167	-64
0.95000	-64
0.95833	-65
0.96667	-65
0.97500	-65
0.98333	-65
0.99167	-65
1.00000	-65
1.00833	-66
1.01667	-66
1.02500	-66
1.03333	-66
1.04167	-66
1.05000	-66
1.05833	-66
1.06667	-66
1.07500	-66
1.08333	-66
1.09167	-66
1.10000	-67
1.10833	-67
1.11667	-67
1.12500	-67
1.13333	-67
1.14167	-67
1.15000	-67
1.15833	-67
1.16667	-67
1.17500	-66
1.18333	-66
1.19167	-66
1.20000	-67
1.20833	-67
1.21667	-67
1.22500	-67
1.23333	-68
1.24167	-67
1.25000	-67
1.25833	-67
1.26667	-67
1.27500	-67
1.28333	-66
1.29167	-66
1.30000	-66
1.30833	-66
1.31667	-66
1.32500	-66
1.33333	-66
1.34167	-67
1.35000	-67
1.35833	-67
1.36667	-67
1.37500	-67
1.38333	-67
1.39167	-67
1.40000	-67
1.40833	-67
1.41667	-67
1.42500	-67
1.43333	-68
1.44167	-68
1.45000	-68
1.45833	-68
1.46667	-68
1.47500	-68
1.48333	-68
1.49167	-68
1.50000	-68
1.50833	-68
1.51667	-68
1.52500	-68
1.53333	-69
1.54167	-69
1.55000	-69
1.55833	-69
1.56667	-69
1.57500	-69
1.58333	-68
1.59167	-69
1.60000	-69
1.60833	-69
1.61667	-69
1.62500	-69
1.63333	-70
1.64167	-70
1.65000	-70
1.65833	-70
1.66667	-70
1.67500	-70
1.68333	-70
1.69167	-70
1.70000	-70
1.70833	-69
1.71667	-69
1.72500	-68
1.73333	-68
1.74167	-68
1.75000	-68
1.75833	-69
1.76667	-69
1.77500	-69
1.78333	-69
1.79167	-69
1.80000	-69
1.80833	-69
1.81667	-70
1.82500	-69
1.83333	-69
1.84167	-69
1.85000	-69
1.85833	-69
1.86667	-69
1.87500	-69
1.88333	-69
1.89167	-69
1.90000	-69
1.90833	-69
1.91667	-69
1.92500	-69
1.93333	-69
1.94167	-69
1.95000	-69
1.95833	-68
1.96667	-69
1.97500	-69
1.98333	-69
1.99167	-69
2.00000	-69
2.00833	-69
2.01667	-70
2.02500	-70
2.03333	-70
2.04167	-70
2.05000	-70
2.05833	-70
2.06667	-70
2.07500	-70
2.08333	-71
2.09167	-71
2.10000	-71
2.10833	-70
2.11667	-70
2.12500	-70
2.13333	-70
2.14167	-70
2.15000	-70
2.15833	-70
2.16667	-70
2.17500	-69
2.18333	-69
2.19167	-69
2.20000	-69
2.20833	-69
2.21667	-68
2.22500	-68
2.23333	-67
2.24167	-67
2.25000	-67
2.25833	-66
2.26667	-66
2.27500	-65
2.28333	-65
2.29167	-64
2.30000	-63
2.30833	-63
2.31667	-62
2.32500	-60
2.33333	-59
2.34167	-58
2.35000	-57
2.35833	-56
2.36667	-55
2.37500	-54
2.38333	-52
2.39167	-51
2.40000	-49
2.40833	-48
2.41667	-46
2.42500	-44
2.43333	-42
2.44167	-40
2.45000	-38
2.45833	-36
2.46667	-33
2.47500	-30
2.48333	-27
2.49167	-24
2.50000	-21
2.50833	-18
2.51667	-15
2.52500	-11
2.53333	-7
2.54167	-2
2.55000	2
2.55833	7
2.56667	12
2.57500	18
2.58333	23
2.59167	29
2.60000	36
2.60833	42
2.61667	49
2.62500	56
2.63333	63
2.64167	71
2.65000	80
2.65833	89
2.66667	98
2.67500	107
2.68333	117
2.69167	128
2.70000	140
2.70833	152
2.71667	165
2.72500	178
2.73333	192
2.74167	206
2.75000	222
2.75833	239
2.76667	256
2.77500	273
2.78333	292
2.79167	311
2.80000	332
2.80833	354
2.81667	377
2.82500	401
2.83333	426
2.84167	453
2.85000	482
2.85833	512
2.86667	544
2.87500	577
2.88333	612
2.89167	648
2.90000	686
2.90833	726
2.91667	768
2.92500	811
2.93333	857
2.94167	905
2.95000	955
2.95833	1008
2.96667	1063
2.97500	1120
2.98333	1179
2.99167	1241
3.00000	1306
3.00833	1373
3.01667	1442
3.02500	1514
3.03333	1589
3.04167	1665
3.05000	1744
3.05833	1825
3.06667	1909
3.07500	1994
3.08333	2082
3.09167	2172
3.10000	2263
3.10833	2356
3.11667	2450
3.12500	2545
3.13333	2642
3.14167	2739
3.15000	2837
3.15833	2935
3.16667	3033
3.17500	3131
3.18333	3228
3.19167	3325
3.20000	3420
3.20833	3513
3.21667	3605
3.22500	3694
3.23333	3782
3.24167	3866
3.25000	3948
3.25833	4025
3.26667	4099
3.27500	4169
3.28333	4235
3.29167	4295
3.30000	4351
3.30833	4402
3.31667	4447
3.32500	4487
3.33333	4521
3.34167	4549
3.35000	4572
3.35833	4588
3.36667	4598
3.37500	4601
3.38333	4599
3.39167	4591
3.40000	4576
3.40833	4555
3.41667	4528
3.42500	4496
3.43333	4458
3.44167	4415
3.45000	4366
3.45833	4312
3.46667	4253
3.47500	4190
3.48333	4122
3.49167	4050
3.50000	3974
3.50833	3895
3.51667	3813
3.52500	3727
3.53333	3640
3.54167	3550
3.55000	3459
3.55833	3366
3.56667	3271
3.57500	3176
3.58333	3080
3.59167	2984
3.60000	2887
3.60833	2791
3.61667	2695
3.62500	2599
3.63333	2505
3.64167	2411
3.65000	2319
3.65833	2228
3.66667	2139
3.67500	2051
3.68333	1965
3.69167	1882
3.70000	1801
3.70833	1722
3.71667	1645
3.72500	1570
3.73333	1497
3.74167	1427
3.75000	1359
3.75833	1295
3.76667	1232
3.77500	1173
3.78333	1115
3.79167	1060
3.80000	1008
3.80833	958
3.81667	911
3.82500	866
3.83333	822
3.84167	781
3.85000	743
3.85833	706
3.86667	671
3.87500	638
3.88333	607
3.89167	578
3.90000	550
3.90833	524
3.91667	500
3.92500	477
3.93333	455
3.94167	435
3.95000	416
3.95833	398
3.96667	382
3.97500	366
3.98333	351
3.99167	337
4.00000	324
4.00833	312
4.01667	301
4.02500	290
4.03333	280
4.04167	270
4.05000	261
4.05833	253
4.06667	245
4.07500	237
4.08333	230
4.09167	223
4.10000	216
4.10833	210
4.11667	203
4.12500	197
4.13333	191
4.14167	186
4.15000	181
4.15833	176
4.16667	170
4.17500	165
4.18333	160
4.19167	155
4.20000	149
4.20833	145
4.21667	140
4.22500	135
4.23333	131
4.24167	126
4.25000	122
4.25833	117
4.26667	113
4.27500	108
4.28333	103
4.29167	98
4.30000	94
4.30833	89
4.31667	85
4.32500	81
4.33333	77
4.34167	73
4.35000	69
4.35833	65
4.36667	61
4.37500	57
4.38333	54
4.39167	50
4.40000	47
4.40833	43
4.41667	40
4.42500	37
4.43333	34
4.44167	31
4.45000	28
4.45833	25
4.46667	23
4.47500	20
4.48333	17
4.49167	14
4.50000	12
4.50833	9
4.51667	7
4.52500	4
4.53333	2
4.54167	-0
4.55000	-2
4.55833	-4
4.56667	-5
4.57500	-6
4.58333	-8
4.59167	-9
4.60000	-10
4.60833	-11
4.61667	-12
4.62500	-12
4.63333	-13
4.64167	-14
4.65000	-14
4.65833	-15
4.66667	-16
4.67500	-17
4.68333	-18
4.69167	-19
4.70000	-20
4.70833	-20
4.71667	-21
4.72500	-21
4.73333	-21
4.74167	-21
4.75000	-21
4.75833	-22
4.76667	-22
4.77500	-22
4.78333	-22
4.79167	-22
4.80000	-22
4.80833	-22
4.81667	-22
4.82500	-23
4.83333	-23
4.84167	-23
4.85000	-23
4.85833	-23
4.86667	-23
4.87500	-23
4.88333	-22
4.89167	-22
4.90000	-23
4.90833	-23
4.91667	-23
4.92500	-23
4.93333	-23
4.94167	-23
4.95000	-23
4.95833	-23
4.96667	-23
4.97500	-22
4.98333	-22
4.99167	-22
5.00000	-22
5.00833	-22
5.01667	-22
5.02500	-21
5.03333	-21
5.04167	-21
5.05000	-21
5.05833	-21
5.06667	-21
5.07500	-21
5.08333	-21
5.09167	-21
5.10000	-22
5.10833	-22
5.11667	-22
5.12500	-22
5.13333	-21
5.14167	-22
5.15000	-22
5.15833	-22
5.16667	-22
5.17500	-22
5.18333	-22
5.19167	-22
5.20000	-22
5.20833	-22
5.21667	-23
5.22500	-23
5.23333	-24
5.24167	-24
5.25000	-24
5.25833	-25
5.26667	-25
5.27500	-25
5.28333	-25
5.29167	-26
5.30000	-26
5.30833	-27
5.31667	-27
5.32500	-28
5.33333	-28
5.34167	-29
5.35000	-29
5.35833	-29
5.36667	-30
5.37500	-30
5.38333	-30
5.39167	-31
5.40000	-31
5.40833	-32
5.41667	-33
5.42500	-34
5.43333	-34
5.44167	-35
5.45000	-35
5.45833	-35
5.46667	-36
5.47500	-37
5.48333	-38
5.49167	-39
5.50000	-39
5.50833	-40
5.51667	-41
5.52500	-41
5.53333	-42
5.54167	-42
5.55000	-43
5.55833	-43
5.56667	-43
5.57500	-44
5.58333	-44
5.59167	-44
5.60000	-45
5.60833	-46
5.61667	-47
5.62500	-47
5.63333	-47
5.64167	-48
5.65000	-48
5.65833	-48
5.66667	-48
5.67500	-49
5.68333	-49
5.69167	-50
5.70000	-50
5.70833	-50
5.71667	-51
5.72500	-51
5.73333	-51
5.74167	-51
5.75000	-52
5.75833	-52
5.76667	-52
5.77500	-53
5.78333	-53
5.79167	-54
5.80000	-54
5.80833	-54
5.81667	-55
5.82500	-55
5.83333	-55
5.84167	-55
5.85000	-55
5.85833	-55
5.86667	-56
5.87500	-56
5.88333	-56
5.89167	-56
5.90000	-56
5.90833	-56
5.91667	-56
5.92500	-56
5.93333	-56
5.94167	-56
5.95000	-56
5.95833	-56
5.96667	-56
5.97500	-56
5.98333	-56
5.99167	-57
6.00000	-57
6.00833	-57
6.01667	-57
6.02500	-57
6.03333	-57
6.04167	-57
6.05000	-57
6.05833	-57
6.06667	-57
6.07500	-57
6.08333	-57
6.09167	-57
6.10000	-57
6.10833	-57
6.11667	-56
6.12500	-56
6.13333	-56
6.14167	-56
6.15000	-56
6.15833	-56
6.16667	-56
6.17500	-57
6.18333	-57
6.19167	-57
6.20000	-57
6.20833	-56
6.21667	-56
6.22500	-56
6.23333	-56
6.24167	-55
6.25000	-55
6.25833	-54
6.26667	-54
6.27500	-54
6.28333	-54
6.29167	-54
6.30000	-54
6.30833	-55
6.31667	-54
6.32500	-54
6.33333	-53
6.34167	-53
6.35000	-53
6.35833	-52
6.36667	-52
6.37500	-52
6.38333	-51
6.39167	-51
6.40000	-51
6.40833	-50
6.41667	-50
6.42500	-50
6.43333	-50
6.44167	-50
6.45000	-50
6.45833	-50
6.46667	-50
6.47500	-50
6.48333	-51
6.49167	-51
6.50000	-51
6.50833	-51
6.51667	-51
6.52500	-51
6.53333	-51
6.54167	-50
6.55000	-50
6.55833	-50
6.56667	-50
6.57500	-50
6.58333	-50
6.59167	-51
6.60000	-51
6.60833	-51
6.61667	-50
6.62500	-50
6.63333	-50
6.64167	-49
6.65000	-50
6.65833	-50
6.66667	-50
6.67500	-51
6.68333	-51
6.69167	-52
6.70000	-52
6.70833	-52
6.71667	-52
6.72500	-52
6.73333	-52
6.74167	-51
6.75000	-52
6.75833	-52
6.76667	-53
6.77500	-53
6.78333	-54
6.79167	-54
6.80000	-54
6.80833	-54
6.81667	-54
6.82500	-54
6.83333	-54
6.84167	-54
6.85000	-54
6.85833	-55
6.86667	-55
6.87500	-55
6.88333	-55
6.89167	-55
6.90000	-54
6.90833	-54
6.91667	-54
6.92500	-54
6.93333	-54
6.94167	-54
6.95000	-54
6.95833	-54
6.96667	-53
6.97500	-53
6.98333	-53
6.99167	-53
7.00000	-53
7.00833	-53
7.01667	-53
7.02500	-53
7.03333	-53
7.04167	-52
7.05000	-52
7.05833	-51
7.06667	-49
7.07500	-47
7.08333	-45
7.09167	-42
7.10000	-39
7.10833	-35
7.11667	-30
7.12500	-24
7.13333	-17
7.14167	-9
7.15000	0
7.15833	12
7.16667	25
7.17500	41
7.18333	58
7.19167	78
7.20000	100
7.20833	123
7.21667	148
7.22500	175
7.23333	203
7.24167	232
7.25000	261
7.25833	290
7.26667	318
7.27500	344
7.28333	365
7.29167	382
7.30000	391
7.30833	392
7.31667	383
7.32500	365
7.33333	340
7.34167	311
7.35000	285
7.35833	272
7.36667	285
7.37500	339
7.38333	452
7.39167	643
7.40000	931
7.40833	1336
7.41667	1875
7.42500	2561
7.43333	3403
7.44167	4404
7.45000	5561
7.45833	6861
7.46667	8285
7.47500	9800
7.48333	11366
7.49167	12932
7.50000	14440
7.50833	15826
7.51667	17027
7.52500	17986
7.53333	18654
7.54167	19001
7.55000	19014
7.55833	18703
7.56667	18095
7.57500	17236
7.58333	16179
7.59167	14986
7.60000	13716
7.60833	12423
7.61667	11155
7.62500	9949
7.63333	8830
7.64167	7817
7.65000	6916
7.65833	6127
7.66667	5445
7.67500	4863
7.68333	4368
7.69167	3951
7.70000	3599
7.70833	3301
7.71667	3047
7.72500	2829
7.73333	2640
7.74167	2473
7.75000	2325
7.75833	2191
7.76667	2070
7.77500	1958
7.78333	1855
7.79167	1759
7.80000	1669
7.80833	1585
7.81667	1506
7.82500	1430
7.83333	1358
7.84167	1289
7.85000	1222
7.85833	1158
7.86667	1096
7.87500	1036
7.88333	977
7.89167	921
7.90000	867
7.90833	815
7.91667	767
7.92500	721
7.93333	680
7.94167	642
7.95000	608
7.95833	578
7.96667	552
7.97500	530
7.98333	512
7.99167	497
8.00000	486
8.00833	477
8.01667	470
8.02500	465
8.03333	461
8.04167	457
8.05000	454
8.05833	450
8.06667	444
8.07500	438
8.08333	431
8.09167	422
8.10000	412
8.10833	400
8.11667	389
8.12500	376
8.13333	364
8.14167	350
8.15000	337
8.15833	324
8.16667	311
8.17500	299
8.18333	287
8.19167	276
8.20000	265
8.20833	255
8.21667	245
8.22500	237
8.23333	229
8.24167	221
8.25000	215
8.25833	209
8.26667	204
8.27500	199
8.28333	195
8.29167	191
8.30000	188
8.30833	185
8.31667	182
8.32500	180
8.33333	178
8.34167	176
8.35000	174
8.35833	172
8.36667	171
8.37500	169
8.38333	168
8.39167	166
8.40000	165
8.40833	163
8.41667	162
8.42500	160
8.43333	159
8.44167	157
8.45000	155
8.45833	154
8.46667	152
8.47500	151
8.48333	150
8.49167	149
8.50000	148
8.50833	146
8.51667	145
8.52500	143
8.53333	142
8.54167	141
8.55000	140
8.55833	139
8.56667	138
8.57500	137
8.58333	137
8.59167	137
8.60000	137
8.60833	137
8.61667	137
8.62500	138
8.63333	139
8.64167	141
8.65000	143
8.65833	145
8.66667	148
8.67500	151
8.68333	155
8.69167	159
8.70000	164
8.70833	169
8.71667	174
8.72500	180
8.73333	187
8.74167	193
8.75000	200
8.75833	206
8.76667	212
8.77500	219
8.78333	225
8.79167	231
8.80000	237
8.80833	243
8.81667	249
8.82500	255
8.83333	261
8.84167	269
8.85000	277
8.85833	287
8.86667	299
8.87500	314
8.88333	332
8.89167	354
8.90000	381
8.90833	413
8.91667	452
8.92500	498
8.93333	552
8.94167	615
8.95000	687
8.95833	768
8.96667	859
8.97500	958
8.98333	1065
8.99167	1178
9.00000	1297
9.00833	1419
9.01667	1542
9.02500	1664
9.03333	1781
9.04167	1893
9.05000	1995
9.05833	2087
9.06667	2165
9.07500	2228
9.08333	2275
9.09167	2305
9.10000	2318
9.10833	2313
9.11667	2293
9.12500	2257
9.13333	2207
9.14167	2144
9.15000	2071
9.15833	1989
9.16667	1901
9.17500	1807
9.18333	1710
9.19167	1612
9.20000	1514
9.20833	1418
9.21667	1324
9.22500	1233
9.23333	1146
9.24167	1066
9.25000	991
9.25833	921
9.26667	858
9.27500	800
9.28333	748
9.29167	701
9.30000	660
9.30833	622
9.31667	590
9.32500	562
9.33333	537
9.34167	517
9.35000	500
9.35833	486
9.36667	475
9.37500	468
9.38333	465
9.39167	465
9.40000	469
9.40833	477
9.41667	491
9.42500	510
9.43333	537
9.44167	572
9.45000	618
9.45833	677
9.46667	750
9.47500	841
9.48333	955
9.49167	1094
9.50000	1263
9.50833	1468
9.51667	1713
9.52500	2003
9.53333	2343
9.54167	2738
9.55000	3193
9.55833	3710
9.56667	4290
9.57500	4935
9.58333	5643
9.59167	6411
9.60000	7233
9.60833	8104
9.61667	9013
9.62500	9950
9.63333	10902
9.64167	11854
9.65000	12793
9.65833	13703
9.66667	14569
9.67500	15377
9.68333	16115
9.69167	16771
9.70000	17337
9.70833	17805
9.71667	18172
9.72500	18438
9.73333	18602
9.74167	18670
9.75000	18649
9.75833	18546
9.76667	18372
9.77500	18138
9.78333	17857
9.79167	17541
9.80000	17203
9.80833	16854
9.81667	16507
9.82500	16171
9.83333	15858
9.84167	15574
9.85000	15327
9.85833	15123
9.86667	14964
9.87500	14855
9.88333	14797
9.89167	14791
9.90000	14837
9.90833	14935
9.91667	15082
9.92500	15278
9.93333	15519
9.94167	15802
9.95000	16125
9.95833	16484
9.96667	16877
9.97500	17300
9.98333	17749
9.99167	18221
10.00000	18712
10.00833	19220
10.01667	19740
10.02500	20267
10.03333	20795
10.04167	21315
10.05000	21814
10.05833	22273
10.06667	22667
10.07500	22964
10.08333	23127
10.09167	23119
10.10000	22903
10.10833	22455
10.11667	21763
10.12500	20832
10.13333	19686
10.14167	18364
10.15000	16915
10.15833	15394
10.16667	13856
10.17500	12348
10.18333	10911
10.19167	9572
10.20000	8352
10.20833	7259
10.21667	6295
10.22500	5455
10.23333	4731
10.24167	4112
10.25000	3587
10.25833	3143
10.26667	2768
10.27500	2453
10.28333	2187
10.29167	1962
10.30000	1772
10.30833	1609
10.31667	1470
10.32500	1350
10.33333	1246
10.34167	1155
10.35000	1075
10.35833	1003
10.36667	938
10.37500	880
10.38333	827
10.39167	779
10.40000	734
10.40833	694
10.41667	656
10.42500	622
10.43333	590
10.44167	561
10.45000	534
10.45833	511
10.46667	490
10.47500	472
10.48333	456
10.49167	444
10.50000	434
10.50833	426
10.51667	422
10.52500	420
10.53333	422
10.54167	426
10.55000	432
10.55833	440
10.56667	450
10.57500	461
10.58333	473
10.59167	485
10.60000	498
10.60833	511
10.61667	522
10.62500	533
10.63333	542
10.64167	548
10.65000	552
10.65833	553
10.66667	551
10.67500	546
10.68333	539
10.69167	529
10.70000	517
10.70833	502
10.71667	486
10.72500	469
10.73333	450
10.74167	431
10.75000	411
10.75833	392
10.76667	372
10.77500	354
10.78333	336
10.79167	319
10.80000	303
10.80833	289
10.81667	275
10.82500	263
10.83333	253
10.84167	244
10.85000	236
10.85833	228
10.86667	222
10.87500	217
10.88333	212
10.89167	207
10.90000	203
10.90833	200
10.91667	197
10.92500	193
10.93333	190
10.94167	187
10.95000	183
10.95833	179
10.96667	175
10.97500	171
10.98333	167
10.99167	162
11.00000	157
11.00833	153
11.01667	148
11.02500	144
11.03333	141
11.04167	138
11.05000	135
11.05833	132
11.06667	129
11.07500	127
11.08333	126
11.09167	125
11.10000	126
11.10833	126
11.11667	128
11.12500	131
11.13333	134
11.14167	139
11.15000	145
11.15833	151
11.16667	159
11.17500	167
11.18333	176
11.19167	185
11.20000	194
11.20833	204
11.21667	214
11.22500	224
11.23333	234
11.24167	242
11.25000	250
11.25833	258
11.26667	264
11.27500	269
11.28333	273
11.29167	275
11.30000	277
11.30833	277
11.31667	277
11.32500	275
11.33333	272
11.34167	268
11.35000	263
11.35833	258
11.36667	253
11.37500	246
11.38333	240
11.39167	233
11.40000	227
11.40833	220
11.41667	213
11.42500	206
11.43333	200
11.44167	194
11.45000	188
11.45833	182
11.46667	177
11.47500	172
11.48333	167
11.49167	163
11.50000	159
11.50833	155
11.51667	152
11.52500	149
11.53333	147
11.54167	145
11.55000	143
11.55833	141
11.56667	140
11.57500	138
11.58333	137
11.59167	135
11.60000	134
11.60833	132
11.61667	132
11.62500	131
11.63333	130
11.64167	130
11.65000	129
11.65833	129
11.66667	128
11.67500	128
11.68333	128
11.69167	129
11.70000	130
11.70833	131
11.71667	132
11.72500	134
11.73333	136
11.74167	138
11.75000	140
11.75833	142
11.76667	144
11.77500	146
11.78333	147
11.79167	149
11.80000	149
11.80833	149
11.81667	148
11.82500	147
11.83333	146
11.84167	144
11.85000	142
11.85833	140
11.86667	136
11.87500	132
11.88333	128
11.89167	124
11.90000	119
11.90833	114
11.91667	109
11.92500	105
11.93333	100
11.94167	95
11.95000	90
11.95833	85
11.96667	81
11.97500	76
11.98333	73
11.99167	69
12.00000	66
12.00833	63
12.01667	61
12.02500	58
12.03333	56
12.04167	55
12.05000	55
12.05833	54
12.06667	54
12.07500	53
12.08333	53
12.09167	53
12.10000	53
12.10833	53
12.11667	53
12.12500	53
12.13333	54
12.14167	54
12.15000	54
12.15833	55
12.16667	55
12.17500	55
12.18333	56
12.19167	56
12.20000	56
12.20833	56
12.21667	56
12.22500	57
12.23333	57
12.24167	57
12.25000	57
12.25833	56
12.26667	56
12.27500	55
12.28333	55
12.29167	54
12.30000	53
12.30833	52
12.31667	50
12.32500	49
12.33333	47
12.34167	46
12.35000	44
12.35833	42
12.36667	40
12.37500	39
12.38333	37
12.39167	35
12.40000	34
12.40833	32
12.41667	30
12.42500	29
12.43333	27
12.44167	25
12.45000	24
12.45833	22
12.46667	20
12.47500	19
12.48333	18
12.49167	17
12.50000	16
12.50833	15
12.51667	15
12.52500	15
12.53333	15
12.54167	15
12.55000	16
12.55833	16
12.56667	17
12.57500	17
12.58333	18
12.59167	19
12.60000	20
12.60833	21
12.61667	23
12.62500	24
12.63333	26
12.64167	27
12.65000	29
12.65833	30
12.66667	32
12.67500	33
12.68333	35
12.69167	36
12.70000	38
12.70833	39
12.71667	41
12.72500	42
12.73333	43
12.74167	44
12.75000	45
12.75833	45
12.76667	46
12.77500	46
12.78333	46
12.79167	45
12.80000	45
12.80833	46
12.81667	46
12.82500	46
12.83333	46
12.84167	46
12.85000	46
12.85833	46
12.86667	46
12.87500	46
12.88333	46
12.89167	46
12.90000	45
12.90833	45
12.91667	46
12.92500	46
12.93333	47
12.94167	47
12.95000	48
12.95833	49
12.96667	50
12.97500	52
12.98333	53
12.99167	54
13.00000	56
13.00833	57
13.01667	58
13.02500	59
13.03333	60
13.04167	61
13.05000	62
13.05833	64
13.06667	65
13.07500	66
13.08333	67
13.09167	67
13.10000	68
13.10833	68
13.11667	69
13.12500	70
13.13333	70
13.14167	70
13.15000	69
13.15833	69
13.16667	69
13.17500	69
13.18333	68
13.19167	68
13.20000	67
13.20833	67
13.21667	66
13.22500	65
13.23333	64
13.24167	64
13.25000	64
13.25833	63
13.26667	63
13.27500	63
13.28333	63
13.29167	63
13.30000	63
13.30833	63
13.31667	63
13.32500	63
13.33333	64
13.34167	64
13.35000	64
13.35833	65
13.36667	65
13.37500	66
13.38333	67
13.39167	68
13.40000	70
13.40833	71
13.41667	72
13.42500	73
13.43333	74
13.44167	75
13.45000	76
13.45833	78
13.46667	79
13.47500	80
13.48333	82
13.49167	84
13.50000	86
13.50833	89
13.51667	92
13.52500	94
13.53333	98
13.54167	101
13.55000	106
13.55833	112
13.56667	118
13.57500	124
13.58333	131
13.59167	139
13.60000	148
13.60833	157
13.61667	168
13.62500	179
13.63333	192
13.64167	205
13.65000	219
13.65833	233
13.66667	248
13.67500	263
13.68333	278
13.69167	293
13.70000	309
13.70833	324
13.71667	338
13.72500	351
13.73333	363
13.74167	375
13.75000	385
13.75833	393
13.76667	401
13.77500	407
13.78333	412
13.79167	416
13.80000	420
13.80833	422
13.81667	424
13.82500	425
13.83333	425
13.84167	425
13.85000	426
13.85833	426
13.86667	426
13.87500	427
13.88333	428
13.89167	430
13.90000	432
13.90833	433
13.91667	435
13.92500	437
13.93333	439
13.94167	440
13.95000	442
13.95833	443
13.96667	444
13.97500	444
13.98333	443
13.99167	441
14.00000	438
14.00833	435
14.01667	431
14.02500	425
14.03333	419
14.04167	412
14.05000	404
14.05833	396
14.06667	387
14.07500	378
14.08333	368
14.09167	359
14.10000	349
14.10833	340
14.11667	331
14.12500	322
14.13333	313
14.14167	305
14.15000	297
14.15833	289
14.16667	282
14.17500	275
14.18333	269
14.19167	264
14.20000	259
14.20833	255
14.21667	251
14.22500	247
14.23333	244
14.24167	242
14.25000	240
14.25833	238
14.26667	236
14.27500	234
14.28333	233
14.29167	232
14.30000	232
14.30833	232
14.31667	232
14.32500	232
14.33333	233
14.34167	233
14.35000	233
14.35833	234
14.36667	235
14.37500	236
14.38333	238
14.39167	239
14.40000	241
14.40833	242
14.41667	243
14.42500	244
14.43333	245
14.44167	246
14.45000	248
14.45833	249
14.46667	251
14.47500	252
14.48333	253
14.49167	254
14.50000	256
14.50833	257
14.51667	258
14.52500	258
14.53333	259
14.54167	260
14.55000	261
14.55833	261
14.56667	261
14.57500	262
14.58333	262
14.59167	262
14.60000	263
14.60833	263
14.61667	262
14.62500	263
14.63333	263
14.64167	262
14.65000	262
14.65833	262
14.66667	261
14.67500	260
14.68333	260
14.69167	259
14.70000	259
14.70833	258
14.71667	258
14.72500	258
14.73333	257
14.74167	257
14.75000	256
14.75833	256
14.76667	255
14.77500	254
14.78333	253
14.79167	252
14.80000	252
14.80833	251
14.81667	251
14.82500	251
14.83333	251
14.84167	252
14.85000	252
14.85833	253
14.86667	253
14.87500	253
14.88333	253
14.89167	253
14.90000	254
14.90833	254
14.91667	255
14.92500	256
14.93333	257
14.94167	259
14.95000	262
14.95833	264
14.96667	266
14.97500	268
14.98333	271
14.99167	275
15.00000	280
15.00833	284
15.01667	290
15.02500	296
15.03333	304
15.04167	312
15.05000	322
15.05833	332
15.06667	345
15.07500	359
15.08333	375
15.09167	393
15.10000	412
15.10833	434
15.11667	458
15.12500	484
15.13333	513
15.14167	544
15.15000	576
15.15833	611
15.16667	647
15.17500	686
15.18333	725
15.19167	765
15.20000	805
15.20833	845
15.21667	885
15.22500	923
15.23333	959
15.24167	993
15.25000	1025
15.25833	1053
15.26667	1077
15.27500	1098
15.28333	1114
15.29167	1125
15.30000	1131
15.30833	1132
15.31667	1129
15.32500	1120
15.33333	1107
15.34167	1089
15.35000	1068
15.35833	1042
15.36667	1013
15.37500	981
15.38333	947
15.39167	911
15.40000	874
15.40833	835
15.41667	796
15.42500	756
15.43333	717
15.44167	679
15.45000	641
15.45833	605
15.46667	570
15.47500	536
15.48333	503
15.49167	473
15.50000	443
15.50833	416
15.51667	391
15.52500	367
15.53333	345
15.54167	325
15.55000	306
15.55833	289
15.56667	272
15.57500	257
15.58333	244
15.59167	232
15.60000	221
15.60833	211
15.61667	202
15.62500	194
15.63333	186
15.64167	180
15.65000	174
15.65833	169
15.66667	165
15.67500	162
15.68333	160
15.69167	159
15.70000	158
15.70833	158
15.71667	158
15.72500	159
15.73333	161
15.74167	164
15.75000	168
15.75833	173
15.76667	178
15.77500	184
15.78333	191
15.79167	199
15.80000	209
15.80833	220
15.81667	232
15.82500	245
15.83333	261
15.84167	279
15.85000	299
15.85833	321
15.86667	346
15.87500	374
15.88333	406
15.89167	442
15.90000	482
15.90833	526
15.91667	577
15.92500	633
15.93333	697
15.94167	767
15.95000	844
15.95833	930
15.96667	1025
15.97500	1127
15.98333	1238
15.99167	1359
16.00000	1488
16.00833	1626
16.01667	1771
16.02500	1924
16.03333	2084
16.04167	2248
16.05000	2416
16.05833	2586
16.06667	2757
16.07500	2927
16.08333	3094
16.09167	3255
16.10000	3409
16.10833	3553
16.11667	3686
16.12500	3805
16.13333	3909
16.14167	3997
16.15000	4068
16.15833	4120
16.16667	4152
16.17500	4165
16.18333	4159
16.19167	4133
16.20000	4089
16.20833	4028
16.21667	3951
16.22500	3859
16.23333	3754
16.24167	3637
16.25000	3510
16.25833	3376
16.26667	3235
16.27500	3091
16.28333	2945
16.29167	2797
16.30000	2650
16.30833	2505
16.31667	2363
16.32500	2225
16.33333	2093
16.34167	1966
16.35000	1846
16.35833	1732
16.36667	1626
16.37500	1527
16.38333	1436
16.39167	1351
16.40000	1275
16.40833	1205
16.41667	1143
16.42500	1087
16.43333	1037
16.44167	993
16.45000	955
16.45833	922
16.46667	895
16.47500	872
16.48333	855
16.49167	841
16.50000	832
16.50833	826
16.51667	823
16.52500	824
16.53333	828
16.54167	834
16.55000	843
16.55833	853
16.56667	865
16.57500	877
16.58333	891
16.59167	905
16.60000	918
16.60833	931
16.61667	943
16.62500	953
16.63333	962
16.64167	970
16.65000	975
16.65833	978
16.66667	978
16.67500	975
16.68333	970
16.69167	961
16.70000	951
16.70833	937
16.71667	921
16.72500	903
16.73333	882
16.74167	859
16.75000	833
16.75833	807
16.76667	779
16.77500	750
16.78333	720
16.79167	690
16.80000	659
16.80833	628
16.81667	598
16.82500	568
16.83333	539
16.84167	510
16.85000	482
16.85833	455
16.86667	430
16.87500	405
16.88333	381
16.89167	358
16.90000	337
16.90833	318
16.91667	300
16.92500	283
16.93333	267
16.94167	252
16.95000	238
16.95833	225
16.96667	213
16.97500	202
16.98333	192
16.99167	182
17.00000	174
17.00833	166
17.01667	158
17.02500	151
17.03333	144
17.04167	139
17.05000	133
17.05833	129
17.06667	124
17.07500	119
17.08333	115
17.09167	111
17.10000	107
17.10833	104
17.11667	101
17.12500	99
17.13333	96
17.14167	93
17.15000	91
17.15833	89
17.16667	86
17.17500	84
17.18333	82
17.19167	79
17.20000	78
17.20833	76
17.21667	75
17.22500	73
17.23333	72
17.24167	71
17.25000	70
17.25833	69
17.26667	68
17.27500	66
17.28333	66
17.29167	65
17.30000	64
17.30833	64
17.31667	63
17.32500	62
17.33333	62
17.34167	61
17.35000	61
17.35833	61
17.36667	61
17.37500	61
17.38333	61
17.39167	61
17.40000	61
17.40833	61
17.41667	61
17.42500	61
17.43333	61
17.44167	61
17.45000	62
17.45833	62
17.46667	63
17.47500	63
17.48333	64
17.49167	65
17.50000	66
17.50833	67
17.51667	68
17.52500	69
17.53333	71
17.54167	72
17.55000	74
17.55833	75
17.56667	77
17.57500	80
17.58333	82
17.59167	85
17.60000	88
17.60833	92
17.61667	96
17.62500	100
17.63333	105
17.64167	110
17.65000	116
17.65833	123
17.66667	130
17.67500	137
17.68333	145
17.69167	154
17.70000	164
17.70833	175
17.71667	187
17.72500	200
17.73333	215
17.74167	231
17.75000	248
17.75833	267
17.76667	288
17.77500	311
17.78333	337
17.79167	365
17.80000	396
17.80833	431
17.81667	468
17.82500	510
17.83333	556
17.84167	606
17.85000	662
17.85833	724
17.86667	791
17.87500	866
17.88333	948
17.89167	1038
17.90000	1136
17.90833	1243
17.91667	1358
17.92500	1483
17.93333	1619
17.94167	1764
17.95000	1920
17.95833	2086
17.96667	2262
17.97500	2447
17.98333	2641
17.99167	2843
18.00000	3053
18.00833	3269
18.01667	3489
18.02500	3712
18.03333	3937
18.04167	4161
18.05000	4382
18.05833	4598
18.06667	4806
18.07500	5005
18.08333	5193
18.09167	5366
18.10000	5524
18.10833	5665
18.11667	5786
18.12500	5887
18.13333	5966
18.14167	6022
18.15000	6056
18.15833	6066
18.16667	6054
18.17500	6019
18.18333	5962
18.19167	5884
18.20000	5785
18.20833	5668
18.21667	5534
18.22500	5384
18.23333	5221
18.24167	5047
18.25000	4863
18.25833	4672
18.26667	4476
18.27500	4275
18.28333	4072
18.29167	3870
18.30000	3668
18.30833	3469
18.31667	3273
18.32500	3083
18.33333	2898
18.34167	2719
18.35000	2548
18.35833	2384
18.36667	2228
18.37500	2081
18.38333	1942
18.39167	1810
18.40000	1687
18.40833	1572
18.41667	1464
18.42500	1365
18.43333	1271
18.44167	1185
18.45000	1105
18.45833	1031
18.46667	963
18.47500	900
18.48333	842
18.49167	788
18.50000	739
18.50833	694
18.51667	653
18.52500	615
18.53333	580
18.54167	549
18.55000	520
18.55833	493
18.56667	469
18.57500	447
18.58333	428
18.59167	410
18.60000	394
18.60833	379
18.61667	366
18.62500	355
18.63333	344
18.64167	336
18.65000	328
18.65833	322
18.66667	317
18.67500	313
18.68333	310
18.69167	308
18.70000	307
18.70833	307
18.71667	308
18.72500	310
18.73333	313
18.74167	317
18.75000	322
18.75833	327
18.76667	334
18.77500	341
18.78333	349
18.79167	357
18.80000	366
18.80833	374
18.81667	384
18.82500	393
18.83333	402
18.84167	412
18.85000	421
18.85833	430
18.86667	439
18.87500	447
18.88333	454
18.89167	461
18.90000	466
18.90833	472
18.91667	476
18.92500	480
18.93333	483
18.94167	485
18.95000	486
18.95833	486
18.96667	484
18.97500	482
18.98333	479
18.99167	475
19.00000	470
19.00833	464
19.01667	457
19.02500	450
19.03333	442
19.04167	434
19.05000	426
19.05833	416
19.06667	407
19.07500	397
19.08333	387
19.09167	378
19.10000	368
19.10833	358
19.11667	348
19.12500	339
19.13333	329
19.14167	320
19.15000	312
19.15833	304
19.16667	296
19.17500	288
19.18333	281
19.19167	274
19.20000	267
19.20833	261
19.21667	255
19.22500	250
19.23333	246
19.24167	241
19.25000	237
19.25833	234
19.26667	231
19.27500	228
19.28333	226
19.29167	224
19.30000	222
19.30833	220
19.31667	218
19.32500	217
19.33333	216
19.34167	216
19.35000	215
19.35833	214
19.36667	214
19.37500	214
19.38333	214
19.39167	215
19.40000	215
19.40833	216
19.41667	216
19.42500	217
19.43333	218
19.44167	219
19.45000	220
19.45833	221
19.46667	222
19.47500	223
19.48333	224
19.49167	225
19.50000	226
19.50833	227
19.51667	227
19.52500	228
19.53333	229
19.54167	230
19.55000	231
19.55833	232
19.56667	233
19.57500	234
19.58333	234
19.59167	235
19.60000	235
19.60833	236
19.61667	236
19.62500	236
19.63333	236
19.64167	237
19.65000	237
19.65833	237
19.66667	238
19.67500	238
19.68333	238
19.69167	239
19.70000	239
19.70833	240
19.71667	241
19.72500	241
19.73333	242
19.74167	242
19.75000	243
19.75833	243
19.76667	244
19.77500	245
19.78333	246
19.79167	246
19.80000	246
19.80833	247
19.81667	247
19.82500	247
19.83333	247
19.84167	247
19.85000	247
19.85833	247
19.86667	248
19.87500	248
19.88333	248
19.89167	249
19.90000	249
19.90833	249
19.91667	249
19.92500	250
19.93333	250
19.94167	250
19.95000	250
19.95833	250
19.96667	251
19.97500	251
19.98333	251
19.99167	252
20.00000	252
20.00833	253
20.01667	254
20.02500	255
20.03333	255
20.04167	256
20.05000	256
20.05833	257
20.06667	257
20.07500	258
20.08333	258
20.09167	259
20.10000	260
20.10833	262
20.11667	263
20.12500	264
20.13333	265
20.14167	265
20.15000	266
20.15833	267
20.16667	268
20.17500	268
20.18333	269
20.19167	270
20.20000	271
20.20833	272
20.21667	273
20.22500	274
20.23333	275
20.24167	276
20.25000	278
20.25833	279
20.26667	280
20.27500	281
20.28333	283
20.29167	284
20.30000	285
20.30833	286
20.31667	288
20.32500	290
20.33333	291
20.34167	293
20.35000	295
20.35833	297
20.36667	300
20.37500	302
20.38333	305
20.39167	307
20.40000	309
20.40833	312
20.41667	315
20.42500	319
20.43333	322
20.44167	326
20.45000	330
20.45833	334
20.46667	338
20.47500	343
20.48333	348
20.49167	352
20.50000	358
20.50833	363
20.51667	369
20.52500	376
20.53333	383
20.54167	390
20.55000	397
20.55833	405
20.56667	413
20.57500	423
20.58333	433
20.59167	444
20.60000	455
20.60833	468
20.61667	481
20.62500	495
20.63333	510
20.64167	527
20.65000	544
20.65833	563
20.66667	583
20.67500	603
20.68333	625
20.69167	649
20.70000	673
20.70833	699
20.71667	726
20.72500	754
20.73333	784
20.74167	815
20.75000	847
20.75833	880
20.76667	914
20.77500	949
20.78333	985
20.79167	1022
20.80000	1059
20.80833	1096
20.81667	1134
20.82500	1173
20.83333	1211
20.84167	1250
20.85000	1288
20.85833	1326
20.86667	1363
20.87500	1399
20.88333	1435
20.89167	1470
20.90000	1504
20.90833	1537
20.91667	1570
20.92500	1601
20.93333	1632
20.94167	1661
20.95000	1691
20.95833	1719
20.96667	1747
20.97500	1775
20.98333	1802
20.99167	1830
21.00000	1857
21.00833	1885
21.01667	1913
21.02500	1942
21.03333	1971
21.04167	2002
21.05000	2034
21.05833	2068
21.06667	2105
21.07500	2144
21.08333	2186
21.09167	2232
21.10000	2281
21.10833	2335
21.11667	2393
21.12500	2457
21.13333	2526
21.14167	2602
21.15000	2684
21.15833	2773
21.16667	2871
21.17500	2977
21.18333	3093
21.19167	3218
21.20000	3355
21.20833	3503
21.21667	3663
21.22500	3835
21.23333	4019
21.24167	4217
21.25000	4429
21.25833	4654
21.26667	4894
21.27500	5147
21.28333	5415
21.29167	5697
21.30000	5992
21.30833	6300
21.31667	6620
21.32500	6951
21.33333	7293
21.34167	7643
21.35000	8001
21.35833	8365
21.36667	8734
21.37500	9104
21.38333	9475
21.39167	9844
21.40000	10209
21.40833	10568
21.41667	10919
21.42500	11259
21.43333	11585
21.44167	11896
21.45000	12189
21.45833	12462
21.46667	12713
21.47500	12940
21.48333	13143
21.49167	13318
21.50000	13466
21.50833	13585
21.51667	13673
21.52500	13732
21.53333	13760
21.54167	13757
21.55000	13724
21.55833	13662
21.56667	13570
21.57500	13450
21.58333	13302
21.59167	13129
21.60000	12931
21.60833	12710
21.61667	12469
21.62500	12208
21.63333	11929
21.64167	11635
21.65000	11328
21.65833	11009
21.66667	10680
21.67500	10343
21.68333	10000
21.69167	9654
21.70000	9306
21.70833	8957
21.71667	8609
21.72500	8263
21.73333	7921
21.74167	7584
21.75000	7253
21.75833	6930
21.76667	6614
21.77500	6306
21.78333	6008
21.79167	5719
21.80000	5440
21.80833	5171
21.81667	4913
21.82500	4665
21.83333	4429
21.84167	4202
21.85000	3987
21.85833	3781
21.86667	3586
21.87500	3401
21.88333	3226
21.89167	3060
21.90000	2902
21.90833	2754
21.91667	2613
21.92500	2481
21.93333	2357
21.94167	2239
21.95000	2128
21.95833	2024
21.96667	1926
21.97500	1834
21.98333	1747
21.99167	1666
22.00000	1590
22.00833	1519
22.01667	1452
22.02500	1389
22.03333	1330
22.04167	1274
22.05000	1222
22.05833	1174
22.06667	1129
22.07500	1086
22.08333	1047
22.09167	1010
22.10000	975
22.10833	943
22.11667	914
22.12500	886
22.13333	860
22.14167	836
22.15000	814
22.15833	793
22.16667	775
22.17500	758
22.18333	742
22.19167	728
22.20000	714
22.20833	702
22.21667	691
22.22500	681
22.23333	672
22.24167	663
22.25000	656
22.25833	650
22.26667	644
22.27500	639
22.28333	634
22.29167	631
22.30000	627
22.30833	625
22.31667	622
22.32500	620
22.33333	618
22.34167	616
22.35000	615
22.35833	614
22.36667	613
22.37500	612
22.38333	611
22.39167	610
22.40000	609
22.40833	608
22.41667	607
22.42500	605
22.43333	604
22.44167	602
22.45000	601
22.45833	598
22.46667	596
22.47500	594
22.48333	591
22.49167	587
22.50000	584
22.50833	580
22.51667	576
22.52500	571
22.53333	567
22.54167	562
22.55000	556
22.55833	551
22.56667	545
22.57500	539
22.58333	533
22.59167	526
22.60000	520
22.60833	514
22.61667	508
22.62500	501
22.63333	494
22.64167	487
22.65000	481
22.65833	474
22.66667	467
22.67500	461
22.68333	454
22.69167	448
22.70000	441
22.70833	435
22.71667	430
22.72500	424
22.73333	418
22.74167	413
22.75000	409
22.75833	404
22.76667	400
22.77500	396
22.78333	392
22.79167	388
22.80000	385
22.80833	382
22.81667	380
22.82500	379
22.83333	377
22.84167	376
22.85000	375
22.85833	374
22.86667	373
22.87500	373
22.88333	373
22.89167	374
22.90000	374
22.90833	376
22.91667	377
22.92500	378
22.93333	380
22.94167	381
22.95000	383
22.95833	386
22.96667	389
22.97500	391
22.98333	394
22.99167	396
23.00000	399
23.00833	401
23.01667	404
23.02500	407
23.03333	410
23.04167	413
23.05000	416
23.05833	418
23.06667	420
23.07500	423
23.08333	425
23.09167	427
23.10000	430
23.10833	432
23.11667	434
23.12500	436
23.13333	438
23.14167	440
23.15000	441
23.15833	442
23.16667	444
23.17500	445
23.18333	447
23.19167	448
23.20000	449
23.20833	449
23.21667	450
23.22500	450
23.23333	450
23.24167	451
23.25000	451
23.25833	451
23.26667	451
23.27500	451
23.28333	451
23.29167	451
23.30000	451
23.30833	451
23.31667	451
23.32500	450
23.33333	449
23.34167	449
23.35000	449
23.35833	448
23.36667	447
23.37500	447
23.38333	446
23.39167	446
23.40000	445
23.40833	444
23.41667	444
23.42500	443
23.43333	442
23.44167	441
23.45000	441
23.45833	440
23.46667	440
23.47500	439
23.48333	439
23.49167	439
23.50000	439
23.50833	438
23.51667	438
23.52500	437
23.53333	437
23.54167	436
23.55000	436
23.55833	436
23.56667	436
23.57500	436
23.58333	436
23.59167	435
23.60000	435
23.60833	435
23.61667	434
23.62500	434
23.63333	433
23.64167	433
23.65000	432
23.65833	432
23.66667	431
23.67500	431
23.68333	431
23.69167	431
23.70000	431
23.70833	431
23.71667	432
23.72500	432
23.73333	432
23.74167	431
23.75000	431
23.75833	430
23.76667	430
23.77500	430
23.78333	430
23.79167	430
23.80000	430
23.80833	430
23.81667	430
23.82500	431
23.83333	431
23.84167	431
23.85000	432
23.85833	432
23.86667	432
23.87500	432
23.88333	432
23.89167	432
23.90000	432
23.90833	432
23.91667	432
23.92500	432
23.93333	432
23.94167	432
23.95000	433
23.95833	433
23.96667	433
23.97500	434
23.98333	434
23.99167	434
24.00000	434
24.00833	434
24.01667	434
24.02500	434
24.03333	435
24.04167	435
24.05000	435
24.05833	434
24.06667	434
24.07500	434
24.08333	433
24.09167	433
24.10000	432
24.10833	432
24.11667	431
24.12500	430
24.13333	429
24.14167	429
24.15000	428
24.15833	427
24.16667	426
24.17500	425
24.18333	424
24.19167	423
24.20000	421
24.20833	420
24.21667	418
24.22500	417
24.23333	415
24.24167	414
24.25000	412
24.25833	411
24.26667	409
24.27500	407
24.28333	405
24.29167	404
24.30000	402
24.30833	400
24.31667	398
24.32500	396
24.33333	393
24.34167	391
24.35000	389
24.35833	387
24.36667	385
24.37500	383
24.38333	381
24.39167	379
24.40000	378
24.40833	376
24.41667	375
24.42500	373
24.43333	372
24.44167	370
24.45000	369
24.45833	368
24.46667	366
24.47500	365
24.48333	364
24.49167	363
24.50000	362
24.50833	361
24.51667	360
24.52500	360
24.53333	359
24.54167	358
24.55000	358
24.55833	357
24.56667	357
24.57500	357
24.58333	356
24.59167	356
24.60000	356
24.60833	356
24.61667	356
24.62500	356
24.63333	356
24.64167	356
24.65000	357
24.65833	357
24.66667	357
24.67500	357
24.68333	357
24.69167	358
24.70000	358
24.70833	357
24.71667	357
24.72500	358
24.73333	358
24.74167	359
24.75000	359
24.75833	359
24.76667	359
24.77500	360
24.78333	360
24.79167	361
24.80000	362
24.80833	362
24.81667	362
24.82500	362
24.83333	362
24.84167	363
24.85000	363
24.85833	363
24.86667	363
24.87500	363
24.88333	363
24.89167	363
24.90000	363
24.90833	364
24.91667	364
24.92500	364
24.93333	364
24.94167	364
24.95000	364
24.95833	364
24.96667	364
24.97500	364
24.98333	364
24.99167	363
25.00000	363
25.00833	362
25.01667	362
25.02500	363
25.03333	362
25.04167	362
25.05000	362
25.05833	361
25.06667	361
25.07500	361
25.08333	360
25.09167	360
25.10000	360
25.10833	360
25.11667	360
25.12500	360
25.13333	359
25.14167	359
25.15000	359
25.15833	358
25.16667	358
25.17500	358
25.18333	358
25.19167	358
25.20000	358
25.20833	357
25.21667	357
25.22500	357
25.23333	357
25.24167	357
25.25000	357
25.25833	357
25.26667	356
25.27500	356
25.28333	356
25.29167	357
25.30000	357
25.30833	357
25.31667	357
25.32500	357
25.33333	357
25.34167	357
25.35000	357
25.35833	357
25.36667	357
25.37500	357
25.38333	357
25.39167	357
25.40000	357
25.40833	357
25.41667	357
25.42500	357
25.43333	357
25.44167	357
25.45000	357
25.45833	357
25.46667	358
25.47500	358
25.48333	358
25.49167	358
25.50000	358
25.50833	359
25.51667	359
25.52500	360
25.53333	360
25.54167	361
25.55000	362
25.55833	362
25.56667	363
25.57500	363
25.58333	364
25.59167	364
25.60000	365
25.60833	365
25.61667	365
25.62500	365
25.63333	366
25.64167	366
25.65000	367
25.65833	367
25.66667	367
25.67500	368
25.68333	369
25.69167	369
25.70000	369
25.70833	370
25.71667	370
25.72500	371
25.73333	371
25.74167	372
25.75000	372
25.75833	373
25.76667	373
25.77500	374
25.78333	374
25.79167	375
25.80000	376
25.80833	377
25.81667	378
25.82500	379
25.83333	380
25.84167	381
25.85000	382
25.85833	383
25.86667	385
25.87500	386
25.88333	387
25.89167	389
25.90000	391
25.90833	393
25.91667	395
25.92500	397
25.93333	400
25.94167	402
25.95000	405
25.95833	408
25.96667	410
25.97500	414
25.98333	417
25.99167	421
26.00000	425
26.00833	429
26.01667	434
26.02500	439
26.03333	444
26.04167	449
26.05000	455
26.05833	461
26.06667	467
26.07500	474
26.08333	482
26.09167	490
26.10000	499
26.10833	509
26.11667	519
26.12500	529
26.13333	540
26.14167	552
26.15000	565
26.15833	578
26.16667	592
26.17500	607
26.18333	623
26.19167	640
26.20000	658
26.20833	676
26.21667	696
26.22500	717
26.23333	739
26.24167	762
26.25000	786
26.25833	810
26.26667	836
26.27500	863
26.28333	891
26.29167	919
26.30000	949
26.30833	980
26.31667	1011
26.32500	1043
26.33333	1075
26.34167	1108
26.35000	1141
26.35833	1175
26.36667	1208
26.37500	1242
26.38333	1277
26.39167	1311
26.40000	1344
26.40833	1377
26.41667	1410
26.42500	1441
26.43333	1472
26.44167	1501
26.45000	1529
26.45833	1556
26.46667	1581
26.47500	1604
26.48333	1626
26.49167	1646
26.50000	1664
26.50833	1679
26.51667	1693
26.52500	1704
26.53333	1712
26.54167	1718
26.55000	1721
26.55833	1722
26.56667	1720
26.57500	1716
26.58333	1709
26.59167	1700
26.60000	1689
26.60833	1675
26.61667	1659
26.62500	1641
26.63333	1621
26.64167	1598
26.65000	1575
26.65833	1549
26.66667	1523
26.67500	1495
26.68333	1466
26.69167	1436
26.70000	1406
26.70833	1374
26.71667	1342
26.72500	1309
26.73333	1276
26.74167	1243
26.75000	1210
26.75833	1177
26.76667	1144
26.77500	1111
26.78333	1079
26.79167	1047
26.80000	1016
26.80833	985
26.81667	955
26.82500	926
26.83333	898
26.84167	870
26.85000	844
26.85833	818
26.86667	793
26.87500	769
26.88333	746
26.89167	723
26.90000	702
26.90833	682
26.91667	662
26.92500	643
26.93333	625
26.94167	608
26.95000	592
26.95833	576
26.96667	561
26.97500	547
26.98333	534
26.99167	521
27.00000	509
27.00833	497
27.01667	485
27.02500	474
27.03333	463
27.04167	453
27.05000	444
27.05833	435
27.06667	426
27.07500	417
27.08333	409
27.09167	401
27.10000	394
27.10833	387
27.11667	380
27.12500	374
27.13333	368
27.14167	362
27.15000	356
27.15833	350
27.16667	344
27.17500	339
27.18333	333
27.19167	328
27.20000	324
27.20833	319
27.21667	315
27.22500	310
27.23333	305
27.24167	301
27.25000	296
27.25833	291
27.26667	287
27.27500	284
27.28333	280
27.29167	276
27.30000	273
27.30833	269
27.31667	266
27.32500	263
27.33333	260
27.34167	257
27.35000	254
27.35833	251
27.36667	248
27.37500	245
27.38333	242
27.39167	240
27.40000	237
27.40833	234
27.41667	231
27.42500	229
27.43333	226
27.44167	224
27.45000	221
27.45833	219
27.46667	217
27.47500	215
27.48333	213
27.49167	211
27.50000	209
27.50833	208
27.51667	206
27.52500	205
27.53333	203
27.54167	201
27.55000	200
27.55833	198
27.56667	197
27.57500	195
27.58333	194
27.59167	192
27.60000	191
27.60833	190
27.61667	188
27.62500	187
27.63333	186
27.64167	185
27.65000	184
27.65833	183
27.66667	182
27.67500	181
27.68333	181
27.69167	180
27.70000	179
27.70833	177
27.71667	176
27.72500	175
27.73333	173
27.74167	172
27.75000	171
27.75833	171
27.76667	170
27.77500	170
27.78333	169
27.79167	168
27.80000	167
27.80833	166
27.81667	165
27.82500	165
27.83333	164
27.84167	163
27.85000	163
27.85833	162
27.86667	162
27.87500	161
27.88333	160
27.89167	160
27.90000	159
27.90833	158
27.91667	157
27.92500	157
27.93333	156
27.94167	155
27.95000	155
27.95833	155
27.96667	154
27.97500	153
27.98333	152
27.99167	152
28.00000	151

