R.Time (min)	Intensity
0.00000	-22
0.00833	-22
0.01667	-1
0.02500	-2
0.03333	-3
0.04167	-4
0.05000	-5
0.05833	-5
0.06667	-6
0.07500	-7
0.08333	-7
0.09167	-8
0.10000	-8
0.10833	-8
0.11667	-9
0.12500	-9
0.13333	-10
0.14167	-10
0.15000	-11
0.15833	-11
0.16667	-12
0.17500	-12
0.18333	-13
0.19167	-14
0.20000	-15
0.20833	-15
0.21667	-16
0.22500	-17
0.23333	-17
0.24167	-18
0.25000	-18
0.25833	-19
0.26667	-20
0.27500	-20
0.28333	-21
0.29167	-22
0.30000	-22
0.30833	-23
0.31667	-23
0.32500	-24
0.33333	-24
0.34167	-25
0.35000	-25
0.35833	-26
0.36667	-26
0.37500	-27
0.38333	-27
0.39167	-28
0.40000	-29
0.40833	-29
0.41667	-30
0.42500	-30
0.43333	-30
0.44167	-31
0.45000	-32
0.45833	-32
0.46667	-33
0.47500	-33
0.48333	-34
0.49167	-35
0.50000	-36
0.50833	-37
0.51667	-38
0.52500	-39
0.53333	-39
0.54167	-40
0.55000	-40
0.55833	-40
0.56667	-41
0.57500	-42
0.58333	-43
0.59167	-43
0.60000	-43
0.60833	-43
0.61667	-43
0.62500	-44
0.63333	-45
0.64167	-46
0.65000	-46
0.65833	-47
0.66667	-47
0.67500	-48
0.68333	-48
0.69167	-48
0.70000	-48
0.70833	-49
0.71667	-49
0.72500	-50
0.73333	-50
0.74167	-51
0.75000	-52
0.75833	-52
0.76667	-53
0.77500	-54
0.78333	-56
0.79167	-57
0.80000	-57
0.80833	-58
0.81667	-58
0.82500	-58
0.83333	-59
0.84167	-59
0.85000	-60
0.85833	-60
0.86667	-60
0.87500	-60
0.88333	-61
0.89167	-61
0.90000	-62
0.90833	-63
0.91667	-63
0.92500	-64
0.93333	-64
0.94167	-65
0.95000	-65
0.95833	-65
0.96667	-65
0.97500	-66
0.98333	-66
0.99167	-66
1.00000	-67
1.00833	-67
1.01667	-67
1.02500	-68
1.03333	-69
1.04167	-69
1.05000	-69
1.05833	-70
1.06667	-70
1.07500	-70
1.08333	-70
1.09167	-71
1.10000	-71
1.10833	-72
1.11667	-72
1.12500	-73
1.13333	-73
1.14167	-73
1.15000	-74
1.15833	-75
1.16667	-75
1.17500	-75
1.18333	-76
1.19167	-76
1.20000	-76
1.20833	-76
1.21667	-77
1.22500	-78
1.23333	-78
1.24167	-79
1.25000	-80
1.25833	-80
1.26667	-81
1.27500	-81
1.28333	-82
1.29167	-82
1.30000	-82
1.30833	-82
1.31667	-83
1.32500	-83
1.33333	-83
1.34167	-84
1.35000	-84
1.35833	-84
1.36667	-85
1.37500	-86
1.38333	-86
1.39167	-87
1.40000	-88
1.40833	-89
1.41667	-89
1.42500	-90
1.43333	-90
1.44167	-91
1.45000	-91
1.45833	-92
1.46667	-92
1.47500	-93
1.48333	-93
1.49167	-93
1.50000	-94
1.50833	-95
1.51667	-95
1.52500	-95
1.53333	-95
1.54167	-95
1.55000	-95
1.55833	-95
1.56667	-95
1.57500	-95
1.58333	-95
1.59167	-95
1.60000	-96
1.60833	-95
1.61667	-95
1.62500	-96
1.63333	-96
1.64167	-96
1.65000	-97
1.65833	-97
1.66667	-98
1.67500	-98
1.68333	-99
1.69167	-99
1.70000	-99
1.70833	-99
1.71667	-100
1.72500	-100
1.73333	-100
1.74167	-101
1.75000	-101
1.75833	-102
1.76667	-102
1.77500	-103
1.78333	-103
1.79167	-104
1.80000	-104
1.80833	-105
1.81667	-106
1.82500	-106
1.83333	-107
1.84167	-107
1.85000	-108
1.85833	-108
1.86667	-109
1.87500	-110
1.88333	-110
1.89167	-111
1.90000	-111
1.90833	-111
1.91667	-111
1.92500	-112
1.93333	-112
1.94167	-113
1.95000	-113
1.95833	-114
1.96667	-114
1.97500	-114
1.98333	-114
1.99167	-114
2.00000	-115
2.00833	-115
2.01667	-115
2.02500	-115
2.03333	-115
2.04167	-115
2.05000	-115
2.05833	-115
2.06667	-115
2.07500	-115
2.08333	-115
2.09167	-115
2.10000	-116
2.10833	-116
2.11667	-116
2.12500	-116
2.13333	-116
2.14167	-116
2.15000	-115
2.15833	-115
2.16667	-115
2.17500	-114
2.18333	-114
2.19167	-114
2.20000	-113
2.20833	-113
2.21667	-112
2.22500	-112
2.23333	-112
2.24167	-111
2.25000	-111
2.25833	-111
2.26667	-111
2.27500	-110
2.28333	-110
2.29167	-110
2.30000	-109
2.30833	-109
2.31667	-108
2.32500	-107
2.33333	-107
2.34167	-106
2.35000	-104
2.35833	-103
2.36667	-102
2.37500	-100
2.38333	-99
2.39167	-97
2.40000	-96
2.40833	-95
2.41667	-93
2.42500	-92
2.43333	-90
2.44167	-88
2.45000	-85
2.45833	-83
2.46667	-80
2.47500	-78
2.48333	-75
2.49167	-72
2.50000	-68
2.50833	-65
2.51667	-61
2.52500	-57
2.53333	-53
2.54167	-48
2.55000	-43
2.55833	-38
2.56667	-33
2.57500	-28
2.58333	-22
2.59167	-16
2.60000	-10
2.60833	-3
2.61667	5
2.62500	13
2.63333	21
2.64167	30
2.65000	39
2.65833	49
2.66667	59
2.67500	70
2.68333	81
2.69167	93
2.70000	106
2.70833	120
2.71667	134
2.72500	149
2.73333	165
2.74167	181
2.75000	198
2.75833	216
2.76667	235
2.77500	255
2.78333	276
2.79167	298
2.80000	321
2.80833	345
2.81667	370
2.82500	397
2.83333	425
2.84167	455
2.85000	486
2.85833	519
2.86667	553
2.87500	589
2.88333	626
2.89167	665
2.90000	707
2.90833	750
2.91667	796
2.92500	844
2.93333	894
2.94167	945
2.95000	999
2.95833	1056
2.96667	1114
2.97500	1175
2.98333	1239
2.99167	1306
3.00000	1374
3.00833	1445
3.01667	1518
3.02500	1593
3.03333	1671
3.04167	1750
3.05000	1832
3.05833	1916
3.06667	2002
3.07500	2089
3.08333	2179
3.09167	2270
3.10000	2362
3.10833	2455
3.11667	2549
3.12500	2644
3.13333	2739
3.14167	2834
3.15000	2930
3.15833	3024
3.16667	3118
3.17500	3212
3.18333	3303
3.19167	3393
3.20000	3481
3.20833	3567
3.21667	3650
3.22500	3730
3.23333	3807
3.24167	3881
3.25000	3951
3.25833	4016
3.26667	4077
3.27500	4133
3.28333	4185
3.29167	4231
3.30000	4272
3.30833	4308
3.31667	4338
3.32500	4362
3.33333	4380
3.34167	4392
3.35000	4398
3.35833	4398
3.36667	4392
3.37500	4379
3.38333	4361
3.39167	4337
3.40000	4308
3.40833	4273
3.41667	4232
3.42500	4186
3.43333	4135
3.44167	4078
3.45000	4018
3.45833	3953
3.46667	3883
3.47500	3810
3.48333	3734
3.49167	3655
3.50000	3572
3.50833	3486
3.51667	3399
3.52500	3309
3.53333	3217
3.54167	3125
3.55000	3031
3.55833	2936
3.56667	2841
3.57500	2745
3.58333	2650
3.59167	2555
3.60000	2460
3.60833	2366
3.61667	2273
3.62500	2181
3.63333	2090
3.64167	2001
3.65000	1914
3.65833	1828
3.66667	1744
3.67500	1663
3.68333	1584
3.69167	1507
3.70000	1432
3.70833	1359
3.71667	1289
3.72500	1222
3.73333	1157
3.74167	1094
3.75000	1034
3.75833	976
3.76667	921
3.77500	868
3.78333	818
3.79167	770
3.80000	724
3.80833	680
3.81667	639
3.82500	600
3.83333	563
3.84167	527
3.85000	494
3.85833	462
3.86667	432
3.87500	404
3.88333	378
3.89167	353
3.90000	330
3.90833	308
3.91667	288
3.92500	269
3.93333	250
3.94167	233
3.95000	217
3.95833	203
3.96667	189
3.97500	176
3.98333	164
3.99167	153
4.00000	143
4.00833	133
4.01667	123
4.02500	115
4.03333	106
4.04167	99
4.05000	92
4.05833	85
4.06667	78
4.07500	72
4.08333	65
4.09167	59
4.10000	54
4.10833	49
4.11667	44
4.12500	39
4.13333	34
4.14167	29
4.15000	25
4.15833	20
4.16667	15
4.17500	11
4.18333	7
4.19167	2
4.20000	-2
4.20833	-6
4.21667	-10
4.22500	-15
4.23333	-19
4.24167	-23
4.25000	-26
4.25833	-30
4.26667	-34
4.27500	-38
4.28333	-42
4.29167	-46
4.30000	-50
4.30833	-54
4.31667	-58
4.32500	-61
4.33333	-65
4.34167	-69
4.35000	-73
4.35833	-76
4.36667	-80
4.37500	-83
4.38333	-86
4.39167	-89
4.40000	-93
4.40833	-96
4.41667	-99
4.42500	-102
4.43333	-105
4.44167	-107
4.45000	-110
4.45833	-113
4.46667	-116
4.47500	-118
4.48333	-120
4.49167	-122
4.50000	-124
4.50833	-125
4.51667	-127
4.52500	-129
4.53333	-130
4.54167	-132
4.55000	-134
4.55833	-135
4.56667	-136
4.57500	-137
4.58333	-137
4.59167	-138
4.60000	-139
4.60833	-140
4.61667	-140
4.62500	-140
4.63333	-141
4.64167	-141
4.65000	-141
4.65833	-141
4.66667	-142
4.67500	-142
4.68333	-142
4.69167	-142
4.70000	-142
4.70833	-142
4.71667	-142
4.72500	-142
4.73333	-141
4.74167	-141
4.75000	-141
4.75833	-140
4.76667	-140
4.77500	-140
4.78333	-140
4.79167	-139
4.80000	-139
4.80833	-139
4.81667	-139
4.82500	-139
4.83333	-138
4.84167	-138
4.85000	-138
4.85833	-137
4.86667	-137
4.87500	-137
4.88333	-136
4.89167	-136
4.90000	-136
4.90833	-135
4.91667	-135
4.92500	-135
4.93333	-135
4.94167	-135
4.95000	-135
4.95833	-136
4.96667	-136
4.97500	-136
4.98333	-136
4.99167	-135
5.00000	-135
5.00833	-135
5.01667	-135
5.02500	-135
5.03333	-135
5.04167	-135
5.05000	-135
5.05833	-135
5.06667	-134
5.07500	-134
5.08333	-134
5.09167	-134
5.10000	-134
5.10833	-134
5.11667	-134
5.12500	-134
5.13333	-134
5.14167	-134
5.15000	-134
5.15833	-134
5.16667	-134
5.17500	-134
5.18333	-134
5.19167	-135
5.20000	-135
5.20833	-136
5.21667	-136
5.22500	-136
5.23333	-136
5.24167	-136
5.25000	-136
5.25833	-136
5.26667	-137
5.27500	-137
5.28333	-138
5.29167	-139
5.30000	-139
5.30833	-140
5.31667	-141
5.32500	-141
5.33333	-142
5.34167	-143
5.35000	-143
5.35833	-144
5.36667	-145
5.37500	-145
5.38333	-146
5.39167	-147
5.40000	-147
5.40833	-148
5.41667	-149
5.42500	-149
5.43333	-149
5.44167	-150
5.45000	-150
5.45833	-150
5.46667	-150
5.47500	-150
5.48333	-150
5.49167	-150
5.50000	-151
5.50833	-151
5.51667	-151
5.52500	-151
5.53333	-152
5.54167	-152
5.55000	-152
5.55833	-152
5.56667	-153
5.57500	-153
5.58333	-153
5.59167	-153
5.60000	-154
5.60833	-154
5.61667	-155
5.62500	-155
5.63333	-156
5.64167	-156
5.65000	-157
5.65833	-157
5.66667	-158
5.67500	-158
5.68333	-159
5.69167	-159
5.70000	-160
5.70833	-160
5.71667	-161
5.72500	-161
5.73333	-162
5.74167	-162
5.75000	-161
5.75833	-161
5.76667	-161
5.77500	-161
5.78333	-162
5.79167	-162
5.80000	-162
5.80833	-163
5.81667	-163
5.82500	-163
5.83333	-162
5.84167	-162
5.85000	-162
5.85833	-162
5.86667	-162
5.87500	-162
5.88333	-161
5.89167	-161
5.90000	-160
5.90833	-160
5.91667	-161
5.92500	-161
5.93333	-162
5.94167	-162
5.95000	-163
5.95833	-164
5.96667	-164
5.97500	-165
5.98333	-166
5.99167	-166
6.00000	-166
6.00833	-166
6.01667	-166
6.02500	-167
6.03333	-167
6.04167	-167
6.05000	-167
6.05833	-167
6.06667	-166
6.07500	-166
6.08333	-165
6.09167	-165
6.10000	-165
6.10833	-165
6.11667	-164
6.12500	-164
6.13333	-164
6.14167	-164
6.15000	-163
6.15833	-163
6.16667	-163
6.17500	-163
6.18333	-163
6.19167	-163
6.20000	-163
6.20833	-162
6.21667	-162
6.22500	-162
6.23333	-161
6.24167	-161
6.25000	-161
6.25833	-161
6.26667	-161
6.27500	-161
6.28333	-161
6.29167	-162
6.30000	-162
6.30833	-162
6.31667	-162
6.32500	-162
6.33333	-163
6.34167	-163
6.35000	-163
6.35833	-163
6.36667	-163
6.37500	-163
6.38333	-163
6.39167	-163
6.40000	-162
6.40833	-162
6.41667	-162
6.42500	-162
6.43333	-162
6.44167	-162
6.45000	-161
6.45833	-161
6.46667	-160
6.47500	-160
6.48333	-160
6.49167	-159
6.50000	-159
6.50833	-159
6.51667	-159
6.52500	-159
6.53333	-159
6.54167	-159
6.55000	-159
6.55833	-159
6.56667	-159
6.57500	-159
6.58333	-160
6.59167	-161
6.60000	-161
6.60833	-161
6.61667	-162
6.62500	-162
6.63333	-163
6.64167	-163
6.65000	-164
6.65833	-164
6.66667	-164
6.67500	-164
6.68333	-164
6.69167	-164
6.70000	-164
6.70833	-164
6.71667	-164
6.72500	-164
6.73333	-164
6.74167	-164
6.75000	-164
6.75833	-164
6.76667	-163
6.77500	-163
6.78333	-162
6.79167	-162
6.80000	-161
6.80833	-161
6.81667	-161
6.82500	-161
6.83333	-161
6.84167	-161
6.85000	-161
6.85833	-161
6.86667	-161
6.87500	-161
6.88333	-161
6.89167	-161
6.90000	-161
6.90833	-161
6.91667	-161
6.92500	-161
6.93333	-161
6.94167	-161
6.95000	-161
6.95833	-161
6.96667	-162
6.97500	-162
6.98333	-162
6.99167	-162
7.00000	-161
7.00833	-161
7.01667	-161
7.02500	-160
7.03333	-160
7.04167	-159
7.05000	-158
7.05833	-158
7.06667	-157
7.07500	-155
7.08333	-153
7.09167	-151
7.10000	-147
7.10833	-143
7.11667	-138
7.12500	-131
7.13333	-124
7.14167	-115
7.15000	-104
7.15833	-92
7.16667	-78
7.17500	-62
7.18333	-44
7.19167	-25
7.20000	-3
7.20833	21
7.21667	47
7.22500	74
7.23333	103
7.24167	133
7.25000	163
7.25833	193
7.26667	222
7.27500	248
7.28333	271
7.29167	288
7.30000	297
7.30833	298
7.31667	289
7.32500	271
7.33333	245
7.34167	217
7.35000	194
7.35833	184
7.36667	203
7.37500	265
7.38333	389
7.39167	593
7.40000	900
7.40833	1326
7.41667	1889
7.42500	2602
7.43333	3474
7.44167	4506
7.45000	5694
7.45833	7027
7.46667	8481
7.47500	10025
7.48333	11616
7.49167	13202
7.50000	14723
7.50833	16116
7.51667	17315
7.52500	18264
7.53333	18915
7.54167	19237
7.55000	19220
7.55833	18876
7.56667	18234
7.57500	17341
7.58333	16253
7.59167	15030
7.60000	13735
7.60833	12421
7.61667	11136
7.62500	9916
7.63333	8787
7.64167	7765
7.65000	6857
7.65833	6063
7.66667	5378
7.67500	4793
7.68333	4296
7.69167	3877
7.70000	3523
7.70833	3223
7.71667	2968
7.72500	2748
7.73333	2557
7.74167	2389
7.75000	2239
7.75833	2104
7.76667	1981
7.77500	1868
7.78333	1764
7.79167	1667
7.80000	1577
7.80833	1492
7.81667	1412
7.82500	1335
7.83333	1263
7.84167	1193
7.85000	1126
7.85833	1061
7.86667	998
7.87500	937
7.88333	879
7.89167	822
7.90000	768
7.90833	717
7.91667	668
7.92500	623
7.93333	581
7.94167	543
7.95000	510
7.95833	480
7.96667	455
7.97500	433
7.98333	415
7.99167	401
8.00000	390
8.00833	381
8.01667	374
8.02500	369
8.03333	365
8.04167	362
8.05000	359
8.05833	354
8.06667	349
8.07500	343
8.08333	335
8.09167	327
8.10000	317
8.10833	306
8.11667	294
8.12500	281
8.13333	268
8.14167	255
8.15000	242
8.15833	229
8.16667	216
8.17500	204
8.18333	191
8.19167	180
8.20000	169
8.20833	160
8.21667	150
8.22500	142
8.23333	134
8.24167	127
8.25000	121
8.25833	115
8.26667	110
8.27500	106
8.28333	102
8.29167	98
8.30000	95
8.30833	92
8.31667	90
8.32500	87
8.33333	85
8.34167	83
8.35000	81
8.35833	80
8.36667	79
8.37500	77
8.38333	76
8.39167	74
8.40000	73
8.40833	71
8.41667	69
8.42500	68
8.43333	66
8.44167	65
8.45000	63
8.45833	62
8.46667	60
8.47500	58
8.48333	56
8.49167	54
8.50000	53
8.50833	52
8.51667	50
8.52500	49
8.53333	47
8.54167	46
8.55000	45
8.55833	44
8.56667	43
8.57500	42
8.58333	42
8.59167	41
8.60000	41
8.60833	41
8.61667	41
8.62500	42
8.63333	43
8.64167	45
8.65000	47
8.65833	49
8.66667	51
8.67500	55
8.68333	58
8.69167	62
8.70000	67
8.70833	73
8.71667	78
8.72500	84
8.73333	90
8.74167	97
8.75000	103
8.75833	110
8.76667	117
8.77500	124
8.78333	130
8.79167	137
8.80000	143
8.80833	149
8.81667	156
8.82500	162
8.83333	170
8.84167	178
8.85000	187
8.85833	198
8.86667	210
8.87500	226
8.88333	245
8.89167	268
8.90000	296
8.90833	329
8.91667	370
8.92500	418
8.93333	475
8.94167	540
8.95000	615
8.95833	699
8.96667	792
8.97500	894
8.98333	1004
8.99167	1120
9.00000	1240
9.00833	1364
9.01667	1488
9.02500	1610
9.03333	1729
9.04167	1840
9.05000	1942
9.05833	2033
9.06667	2109
9.07500	2171
9.08333	2216
9.09167	2243
9.10000	2254
9.10833	2247
9.11667	2223
9.12500	2184
9.13333	2131
9.14167	2066
9.15000	1990
9.15833	1906
9.16667	1815
9.17500	1720
9.18333	1621
9.19167	1521
9.20000	1422
9.20833	1325
9.21667	1230
9.22500	1140
9.23333	1054
9.24167	974
9.25000	899
9.25833	829
9.26667	765
9.27500	707
9.28333	655
9.29167	609
9.30000	567
9.30833	531
9.31667	498
9.32500	470
9.33333	446
9.34167	426
9.35000	409
9.35833	396
9.36667	386
9.37500	379
9.38333	376
9.39167	377
9.40000	382
9.40833	392
9.41667	407
9.42500	429
9.43333	458
9.44167	495
9.45000	543
9.45833	604
9.46667	681
9.47500	776
9.48333	895
9.49167	1039
9.50000	1216
9.50833	1428
9.51667	1682
9.52500	1983
9.53333	2335
9.54167	2744
9.55000	3212
9.55833	3744
9.56667	4340
9.57500	5002
9.58333	5727
9.59167	6512
9.60000	7352
9.60833	8238
9.61667	9162
9.62500	10112
9.63333	11075
9.64167	12036
9.65000	12982
9.65833	13897
9.66667	14764
9.67500	15571
9.68333	16305
9.69167	16956
9.70000	17513
9.70833	17972
9.71667	18327
9.72500	18579
9.73333	18729
9.74167	18783
9.75000	18746
9.75833	18628
9.76667	18439
9.77500	18192
9.78333	17897
9.79167	17570
9.80000	17221
9.80833	16863
9.81667	16508
9.82500	16167
9.83333	15848
9.84167	15561
9.85000	15312
9.85833	15106
9.86667	14948
9.87500	14840
9.88333	14784
9.89167	14780
9.90000	14829
9.90833	14930
9.91667	15079
9.92500	15277
9.93333	15521
9.94167	15808
9.95000	16134
9.95833	16497
9.96667	16894
9.97500	17320
9.98333	17773
9.99167	18249
10.00000	18745
10.00833	19257
10.01667	19781
10.02500	20312
10.03333	20844
10.04167	21368
10.05000	21873
10.05833	22339
10.06667	22741
10.07500	23048
10.08333	23224
10.09167	23230
10.10000	23030
10.10833	22597
10.11667	21919
10.12500	20998
10.13333	19859
10.14167	18537
10.15000	17085
10.15833	15555
10.16667	14002
10.17500	12477
10.18333	11020
10.19167	9662
10.20000	8421
10.20833	7308
10.21667	6326
10.22500	5469
10.23333	4731
10.24167	4099
10.25000	3562
10.25833	3108
10.26667	2725
10.27500	2403
10.28333	2131
10.29167	1901
10.30000	1707
10.30833	1542
10.31667	1401
10.32500	1279
10.33333	1173
10.34167	1080
10.35000	998
10.35833	925
10.36667	860
10.37500	801
10.38333	748
10.39167	699
10.40000	654
10.40833	613
10.41667	575
10.42500	540
10.43333	508
10.44167	478
10.45000	452
10.45833	427
10.46667	406
10.47500	388
10.48333	373
10.49167	360
10.50000	350
10.50833	343
10.51667	339
10.52500	338
10.53333	339
10.54167	343
10.55000	349
10.55833	357
10.56667	366
10.57500	377
10.58333	389
10.59167	402
10.60000	414
10.60833	426
10.61667	437
10.62500	447
10.63333	455
10.64167	461
10.65000	464
10.65833	465
10.66667	462
10.67500	457
10.68333	450
10.69167	439
10.70000	426
10.70833	411
10.71667	395
10.72500	377
10.73333	358
10.74167	339
10.75000	319
10.75833	300
10.76667	281
10.77500	262
10.78333	244
10.79167	227
10.80000	212
10.80833	197
10.81667	183
10.82500	171
10.83333	161
10.84167	151
10.85000	144
10.85833	137
10.86667	131
10.87500	125
10.88333	121
10.89167	117
10.90000	113
10.90833	110
10.91667	107
10.92500	104
10.93333	101
10.94167	97
10.95000	94
10.95833	90
10.96667	86
10.97500	82
10.98333	78
10.99167	73
11.00000	69
11.00833	64
11.01667	60
11.02500	56
11.03333	52
11.04167	48
11.05000	45
11.05833	42
11.06667	40
11.07500	38
11.08333	37
11.09167	37
11.10000	37
11.10833	38
11.11667	40
11.12500	43
11.13333	47
11.14167	51
11.15000	56
11.15833	63
11.16667	70
11.17500	77
11.18333	86
11.19167	95
11.20000	104
11.20833	113
11.21667	123
11.22500	132
11.23333	141
11.24167	150
11.25000	159
11.25833	166
11.26667	172
11.27500	177
11.28333	181
11.29167	184
11.30000	185
11.30833	186
11.31667	185
11.32500	183
11.33333	181
11.34167	177
11.35000	173
11.35833	168
11.36667	162
11.37500	156
11.38333	150
11.39167	144
11.40000	137
11.40833	130
11.41667	124
11.42500	117
11.43333	111
11.44167	104
11.45000	99
11.45833	93
11.46667	88
11.47500	83
11.48333	78
11.49167	74
11.50000	70
11.50833	67
11.51667	63
11.52500	61
11.53333	58
11.54167	56
11.55000	54
11.55833	53
11.56667	52
11.57500	50
11.58333	49
11.59167	48
11.60000	47
11.60833	46
11.61667	44
11.62500	43
11.63333	42
11.64167	41
11.65000	41
11.65833	41
11.66667	40
11.67500	40
11.68333	41
11.69167	42
11.70000	43
11.70833	44
11.71667	46
11.72500	48
11.73333	49
11.74167	51
11.75000	53
11.75833	55
11.76667	57
11.77500	58
11.78333	59
11.79167	60
11.80000	60
11.80833	60
11.81667	60
11.82500	59
11.83333	58
11.84167	56
11.85000	53
11.85833	50
11.86667	46
11.87500	42
11.88333	38
11.89167	34
11.90000	30
11.90833	25
11.91667	21
11.92500	16
11.93333	11
11.94167	7
11.95000	2
11.95833	-2
11.96667	-7
11.97500	-11
11.98333	-14
11.99167	-18
12.00000	-20
12.00833	-23
12.01667	-25
12.02500	-27
12.03333	-29
12.04167	-30
12.05000	-31
12.05833	-32
12.06667	-33
12.07500	-33
12.08333	-34
12.09167	-34
12.10000	-34
12.10833	-34
12.11667	-34
12.12500	-34
12.13333	-33
12.14167	-33
12.15000	-32
12.15833	-31
12.16667	-31
12.17500	-31
12.18333	-30
12.19167	-31
12.20000	-31
12.20833	-30
12.21667	-30
12.22500	-30
12.23333	-30
12.24167	-30
12.25000	-31
12.25833	-31
12.26667	-31
12.27500	-31
12.28333	-31
12.29167	-32
12.30000	-33
12.30833	-34
12.31667	-36
12.32500	-37
12.33333	-39
12.34167	-40
12.35000	-42
12.35833	-44
12.36667	-46
12.37500	-48
12.38333	-50
12.39167	-52
12.40000	-54
12.40833	-57
12.41667	-59
12.42500	-61
12.43333	-63
12.44167	-65
12.45000	-66
12.45833	-67
12.46667	-69
12.47500	-70
12.48333	-71
12.49167	-72
12.50000	-72
12.50833	-73
12.51667	-74
12.52500	-74
12.53333	-75
12.54167	-75
12.55000	-75
12.55833	-75
12.56667	-75
12.57500	-74
12.58333	-74
12.59167	-73
12.60000	-72
12.60833	-71
12.61667	-70
12.62500	-68
12.63333	-67
12.64167	-66
12.65000	-65
12.65833	-63
12.66667	-62
12.67500	-61
12.68333	-60
12.69167	-58
12.70000	-57
12.70833	-56
12.71667	-55
12.72500	-54
12.73333	-53
12.74167	-53
12.75000	-52
12.75833	-52
12.76667	-51
12.77500	-51
12.78333	-51
12.79167	-51
12.80000	-51
12.80833	-51
12.81667	-51
12.82500	-51
12.83333	-51
12.84167	-51
12.85000	-51
12.85833	-51
12.86667	-51
12.87500	-51
12.88333	-51
12.89167	-51
12.90000	-51
12.90833	-50
12.91667	-50
12.92500	-49
12.93333	-49
12.94167	-48
12.95000	-47
12.95833	-46
12.96667	-45
12.97500	-44
12.98333	-43
12.99167	-41
13.00000	-40
13.00833	-38
13.01667	-37
13.02500	-35
13.03333	-34
13.04167	-33
13.05000	-31
13.05833	-30
13.06667	-29
13.07500	-27
13.08333	-26
13.09167	-25
13.10000	-25
13.10833	-25
13.11667	-24
13.12500	-24
13.13333	-25
13.14167	-25
13.15000	-26
13.15833	-26
13.16667	-26
13.17500	-27
13.18333	-27
13.19167	-28
13.20000	-28
13.20833	-29
13.21667	-30
13.22500	-30
13.23333	-31
13.24167	-31
13.25000	-31
13.25833	-32
13.26667	-32
13.27500	-33
13.28333	-33
13.29167	-33
13.30000	-33
13.30833	-33
13.31667	-33
13.32500	-33
13.33333	-32
13.34167	-32
13.35000	-32
13.35833	-31
13.36667	-31
13.37500	-30
13.38333	-29
13.39167	-28
13.40000	-27
13.40833	-26
13.41667	-25
13.42500	-24
13.43333	-23
13.44167	-21
13.45000	-20
13.45833	-19
13.46667	-17
13.47500	-15
13.48333	-13
13.49167	-11
13.50000	-9
13.50833	-6
13.51667	-2
13.52500	2
13.53333	6
13.54167	10
13.55000	15
13.55833	21
13.56667	27
13.57500	34
13.58333	42
13.59167	50
13.60000	60
13.60833	70
13.61667	81
13.62500	93
13.63333	107
13.64167	120
13.65000	134
13.65833	149
13.66667	165
13.67500	181
13.68333	196
13.69167	212
13.70000	228
13.70833	244
13.71667	258
13.72500	272
13.73333	284
13.74167	296
13.75000	306
13.75833	315
13.76667	323
13.77500	329
13.78333	335
13.79167	339
13.80000	342
13.80833	345
13.81667	346
13.82500	347
13.83333	347
13.84167	347
13.85000	347
13.85833	348
13.86667	349
13.87500	349
13.88333	350
13.89167	352
13.90000	354
13.90833	356
13.91667	357
13.92500	359
13.93333	360
13.94167	362
13.95000	363
13.95833	364
13.96667	365
13.97500	365
13.98333	364
13.99167	362
14.00000	359
14.00833	355
14.01667	350
14.02500	344
14.03333	338
14.04167	331
14.05000	323
14.05833	315
14.06667	306
14.07500	296
14.08333	286
14.09167	277
14.10000	267
14.10833	257
14.11667	248
14.12500	239
14.13333	230
14.14167	221
14.15000	214
14.15833	206
14.16667	200
14.17500	193
14.18333	188
14.19167	182
14.20000	178
14.20833	173
14.21667	169
14.22500	165
14.23333	162
14.24167	160
14.25000	158
14.25833	156
14.26667	155
14.27500	154
14.28333	153
14.29167	152
14.30000	151
14.30833	151
14.31667	151
14.32500	150
14.33333	151
14.34167	151
14.35000	152
14.35833	153
14.36667	154
14.37500	156
14.38333	157
14.39167	158
14.40000	158
14.40833	159
14.41667	160
14.42500	161
14.43333	162
14.44167	163
14.45000	164
14.45833	165
14.46667	166
14.47500	167
14.48333	168
14.49167	169
14.50000	170
14.50833	171
14.51667	172
14.52500	172
14.53333	172
14.54167	173
14.55000	173
14.55833	174
14.56667	174
14.57500	175
14.58333	174
14.59167	174
14.60000	173
14.60833	173
14.61667	172
14.62500	171
14.63333	170
14.64167	169
14.65000	168
14.65833	168
14.66667	167
14.67500	166
14.68333	165
14.69167	165
14.70000	164
14.70833	163
14.71667	162
14.72500	161
14.73333	160
14.74167	159
14.75000	158
14.75833	157
14.76667	157
14.77500	156
14.78333	156
14.79167	156
14.80000	155
14.80833	155
14.81667	156
14.82500	155
14.83333	155
14.84167	155
14.85000	155
14.85833	155
14.86667	155
14.87500	156
14.88333	156
14.89167	157
14.90000	158
14.90833	159
14.91667	160
14.92500	161
14.93333	162
14.94167	164
14.95000	165
14.95833	167
14.96667	169
14.97500	171
14.98333	174
14.99167	178
15.00000	182
15.00833	187
15.01667	193
15.02500	199
15.03333	206
15.04167	215
15.05000	225
15.05833	236
15.06667	249
15.07500	264
15.08333	280
15.09167	298
15.10000	319
15.10833	341
15.11667	366
15.12500	393
15.13333	422
15.14167	453
15.15000	487
15.15833	522
15.16667	559
15.17500	598
15.18333	637
15.19167	678
15.20000	718
15.20833	758
15.21667	798
15.22500	836
15.23333	873
15.24167	907
15.25000	938
15.25833	965
15.26667	988
15.27500	1008
15.28333	1022
15.29167	1033
15.30000	1038
15.30833	1038
15.31667	1034
15.32500	1024
15.33333	1010
15.34167	992
15.35000	969
15.35833	943
15.36667	913
15.37500	881
15.38333	845
15.39167	809
15.40000	771
15.40833	732
15.41667	692
15.42500	653
15.43333	614
15.44167	575
15.45000	536
15.45833	500
15.46667	464
15.47500	430
15.48333	398
15.49167	367
15.50000	338
15.50833	311
15.51667	286
15.52500	262
15.53333	241
15.54167	221
15.55000	202
15.55833	185
15.56667	170
15.57500	156
15.58333	142
15.59167	130
15.60000	119
15.60833	110
15.61667	101
15.62500	94
15.63333	87
15.64167	81
15.65000	76
15.65833	72
15.66667	68
15.67500	65
15.68333	63
15.69167	61
15.70000	61
15.70833	61
15.71667	62
15.72500	64
15.73333	67
15.74167	70
15.75000	74
15.75833	79
15.76667	85
15.77500	92
15.78333	100
15.79167	109
15.80000	119
15.80833	131
15.81667	144
15.82500	158
15.83333	174
15.84167	193
15.85000	214
15.85833	237
15.86667	263
15.87500	292
15.88333	325
15.89167	362
15.90000	404
15.90833	451
15.91667	503
15.92500	562
15.93333	627
15.94167	699
15.95000	779
15.95833	867
15.96667	964
15.97500	1069
15.98333	1184
15.99167	1308
16.00000	1440
16.00833	1581
16.01667	1730
16.02500	1886
16.03333	2049
16.04167	2216
16.05000	2387
16.05833	2560
16.06667	2732
16.07500	2903
16.08333	3071
16.09167	3232
16.10000	3385
16.10833	3528
16.11667	3660
16.12500	3777
16.13333	3880
16.14167	3965
16.15000	4032
16.15833	4080
16.16667	4109
16.17500	4118
16.18333	4108
16.19167	4078
16.20000	4030
16.20833	3965
16.21667	3884
16.22500	3788
16.23333	3679
16.24167	3559
16.25000	3430
16.25833	3293
16.26667	3150
16.27500	3004
16.28333	2855
16.29167	2706
16.30000	2557
16.30833	2411
16.31667	2269
16.32500	2131
16.33333	1998
16.34167	1872
16.35000	1751
16.35833	1638
16.36667	1532
16.37500	1434
16.38333	1342
16.39167	1258
16.40000	1181
16.40833	1112
16.41667	1049
16.42500	993
16.43333	944
16.44167	901
16.45000	864
16.45833	832
16.46667	805
16.47500	783
16.48333	766
16.49167	753
16.50000	744
16.50833	738
16.51667	737
16.52500	738
16.53333	742
16.54167	749
16.55000	757
16.55833	768
16.56667	779
16.57500	792
16.58333	806
16.59167	819
16.60000	833
16.60833	845
16.61667	857
16.62500	867
16.63333	876
16.64167	883
16.65000	887
16.65833	889
16.66667	889
16.67500	885
16.68333	879
16.69167	870
16.70000	859
16.70833	845
16.71667	827
16.72500	807
16.73333	785
16.74167	761
16.75000	735
16.75833	707
16.76667	678
16.77500	648
16.78333	618
16.79167	587
16.80000	556
16.80833	525
16.81667	495
16.82500	465
16.83333	435
16.84167	407
16.85000	379
16.85833	352
16.86667	327
16.87500	302
16.88333	279
16.89167	257
16.90000	236
16.90833	217
16.91667	198
16.92500	180
16.93333	164
16.94167	149
16.95000	135
16.95833	123
16.96667	111
16.97500	100
16.98333	90
16.99167	81
17.00000	72
17.00833	65
17.01667	57
17.02500	51
17.03333	45
17.04167	39
17.05000	34
17.05833	28
17.06667	23
17.07500	18
17.08333	14
17.09167	10
17.10000	6
17.10833	3
17.11667	-1
17.12500	-4
17.13333	-6
17.14167	-9
17.15000	-12
17.15833	-14
17.16667	-16
17.17500	-18
17.18333	-21
17.19167	-23
17.20000	-24
17.20833	-26
17.21667	-27
17.22500	-29
17.23333	-30
17.24167	-32
17.25000	-34
17.25833	-35
17.26667	-36
17.27500	-37
17.28333	-38
17.29167	-38
17.30000	-38
17.30833	-39
17.31667	-39
17.32500	-39
17.33333	-40
17.34167	-40
17.35000	-40
17.35833	-41
17.36667	-41
17.37500	-41
17.38333	-42
17.39167	-42
17.40000	-41
17.40833	-41
17.41667	-41
17.42500	-41
17.43333	-40
17.44167	-40
17.45000	-39
17.45833	-38
17.46667	-37
17.47500	-37
17.48333	-36
17.49167	-36
17.50000	-35
17.50833	-33
17.51667	-32
17.52500	-31
17.53333	-29
17.54167	-28
17.55000	-27
17.55833	-25
17.56667	-23
17.57500	-20
17.58333	-18
17.59167	-15
17.60000	-11
17.60833	-8
17.61667	-4
17.62500	-0
17.63333	4
17.64167	9
17.65000	15
17.65833	22
17.66667	29
17.67500	37
17.68333	46
17.69167	55
17.70000	65
17.70833	76
17.71667	88
17.72500	102
17.73333	117
17.74167	134
17.75000	152
17.75833	172
17.76667	194
17.77500	218
17.78333	245
17.79167	274
17.80000	306
17.80833	342
17.81667	381
17.82500	425
17.83333	473
17.84167	525
17.85000	583
17.85833	646
17.86667	716
17.87500	793
17.88333	878
17.89167	970
17.90000	1072
17.90833	1182
17.91667	1301
17.92500	1430
17.93333	1570
17.94167	1719
17.95000	1879
17.95833	2049
17.96667	2230
17.97500	2420
17.98333	2619
17.99167	2825
18.00000	3039
18.00833	3258
18.01667	3481
18.02500	3708
18.03333	3935
18.04167	4161
18.05000	4383
18.05833	4600
18.06667	4809
18.07500	5008
18.08333	5195
18.09167	5368
18.10000	5524
18.10833	5662
18.11667	5781
18.12500	5878
18.13333	5953
18.14167	6005
18.15000	6034
18.15833	6039
18.16667	6020
18.17500	5979
18.18333	5916
18.19167	5832
18.20000	5728
18.20833	5605
18.21667	5466
18.22500	5312
18.23333	5145
18.24167	4967
18.25000	4779
18.25833	4584
18.26667	4384
18.27500	4180
18.28333	3974
18.29167	3769
18.30000	3565
18.30833	3365
18.31667	3168
18.32500	2976
18.33333	2791
18.34167	2612
18.35000	2440
18.35833	2276
18.36667	2119
18.37500	1971
18.38333	1832
18.39167	1700
18.40000	1577
18.40833	1462
18.41667	1355
18.42500	1254
18.43333	1161
18.44167	1075
18.45000	995
18.45833	922
18.46667	854
18.47500	791
18.48333	733
18.49167	680
18.50000	632
18.50833	587
18.51667	546
18.52500	509
18.53333	474
18.54167	443
18.55000	414
18.55833	387
18.56667	363
18.57500	342
18.58333	322
18.59167	305
18.60000	289
18.60833	275
18.61667	262
18.62500	251
18.63333	240
18.64167	232
18.65000	225
18.65833	218
18.66667	213
18.67500	209
18.68333	206
18.69167	205
18.70000	205
18.70833	205
18.71667	207
18.72500	209
18.73333	212
18.74167	216
18.75000	221
18.75833	227
18.76667	233
18.77500	240
18.78333	248
18.79167	256
18.80000	264
18.80833	272
18.81667	281
18.82500	289
18.83333	298
18.84167	307
18.85000	317
18.85833	326
18.86667	335
18.87500	343
18.88333	351
18.89167	358
18.90000	364
18.90833	369
18.91667	374
18.92500	377
18.93333	380
18.94167	382
18.95000	382
18.95833	382
18.96667	381
18.97500	378
18.98333	375
18.99167	371
19.00000	365
19.00833	360
19.01667	353
19.02500	345
19.03333	338
19.04167	330
19.05000	321
19.05833	312
19.06667	303
19.07500	294
19.08333	284
19.09167	274
19.10000	264
19.10833	255
19.11667	245
19.12500	236
19.13333	227
19.14167	217
19.15000	209
19.15833	200
19.16667	192
19.17500	184
19.18333	177
19.19167	171
19.20000	165
19.20833	158
19.21667	153
19.22500	147
19.23333	142
19.24167	138
19.25000	134
19.25833	131
19.26667	127
19.27500	124
19.28333	121
19.29167	119
19.30000	117
19.30833	115
19.31667	113
19.32500	112
19.33333	111
19.34167	110
19.35000	110
19.35833	110
19.36667	110
19.37500	109
19.38333	109
19.39167	109
19.40000	109
19.40833	110
19.41667	111
19.42500	112
19.43333	113
19.44167	115
19.45000	117
19.45833	118
19.46667	120
19.47500	121
19.48333	122
19.49167	123
19.50000	125
19.50833	126
19.51667	127
19.52500	128
19.53333	128
19.54167	129
19.55000	130
19.55833	131
19.56667	131
19.57500	132
19.58333	133
19.59167	134
19.60000	135
19.60833	135
19.61667	136
19.62500	136
19.63333	137
19.64167	137
19.65000	137
19.65833	137
19.66667	138
19.67500	138
19.68333	138
19.69167	138
19.70000	138
19.70833	138
19.71667	138
19.72500	139
19.73333	140
19.74167	141
19.75000	141
19.75833	142
19.76667	142
19.77500	143
19.78333	144
19.79167	144
19.80000	144
19.80833	144
19.81667	145
19.82500	145
19.83333	146
19.84167	147
19.85000	147
19.85833	148
19.86667	149
19.87500	149
19.88333	150
19.89167	151
19.90000	151
19.90833	152
19.91667	153
19.92500	153
19.93333	154
19.94167	154
19.95000	154
19.95833	154
19.96667	155
19.97500	155
19.98333	155
19.99167	156
20.00000	157
20.00833	158
20.01667	158
20.02500	158
20.03333	159
20.04167	159
20.05000	159
20.05833	160
20.06667	160
20.07500	161
20.08333	161
20.09167	162
20.10000	163
20.10833	163
20.11667	164
20.12500	164
20.13333	165
20.14167	165
20.15000	166
20.15833	167
20.16667	168
20.17500	169
20.18333	170
20.19167	171
20.20000	171
20.20833	173
20.21667	174
20.22500	175
20.23333	176
20.24167	177
20.25000	179
20.25833	180
20.26667	181
20.27500	183
20.28333	184
20.29167	186
20.30000	187
20.30833	189
20.31667	191
20.32500	193
20.33333	196
20.34167	198
20.35000	201
20.35833	203
20.36667	205
20.37500	207
20.38333	209
20.39167	212
20.40000	215
20.40833	218
20.41667	222
20.42500	225
20.43333	228
20.44167	232
20.45000	236
20.45833	240
20.46667	245
20.47500	250
20.48333	254
20.49167	259
20.50000	264
20.50833	270
20.51667	276
20.52500	282
20.53333	290
20.54167	297
20.55000	305
20.55833	313
20.56667	322
20.57500	332
20.58333	342
20.59167	353
20.60000	365
20.60833	377
20.61667	391
20.62500	405
20.63333	421
20.64167	438
20.65000	456
20.65833	475
20.66667	494
20.67500	516
20.68333	538
20.69167	562
20.70000	588
20.70833	615
20.71667	643
20.72500	672
20.73333	703
20.74167	735
20.75000	768
20.75833	802
20.76667	837
20.77500	873
20.78333	909
20.79167	947
20.80000	986
20.80833	1024
20.81667	1063
20.82500	1102
20.83333	1140
20.84167	1179
20.85000	1217
20.85833	1255
20.86667	1292
20.87500	1329
20.88333	1365
20.89167	1401
20.90000	1435
20.90833	1469
20.91667	1502
20.92500	1534
20.93333	1565
20.94167	1595
20.95000	1624
20.95833	1653
20.96667	1681
20.97500	1709
20.98333	1736
20.99167	1764
21.00000	1791
21.00833	1819
21.01667	1848
21.02500	1878
21.03333	1909
21.04167	1940
21.05000	1974
21.05833	2009
21.06667	2047
21.07500	2087
21.08333	2130
21.09167	2177
21.10000	2228
21.10833	2283
21.11667	2343
21.12500	2409
21.13333	2480
21.14167	2558
21.15000	2643
21.15833	2736
21.16667	2837
21.17500	2948
21.18333	3067
21.19167	3197
21.20000	3338
21.20833	3490
21.21667	3654
21.22500	3831
21.23333	4021
21.24167	4224
21.25000	4441
21.25833	4673
21.26667	4918
21.27500	5178
21.28333	5453
21.29167	5741
21.30000	6042
21.30833	6357
21.31667	6684
21.32500	7022
21.33333	7370
21.34167	7727
21.35000	8090
21.35833	8460
21.36667	8832
21.37500	9207
21.38333	9582
21.39167	9955
21.40000	10324
21.40833	10685
21.41667	11037
21.42500	11377
21.43333	11703
21.44167	12013
21.45000	12305
21.45833	12575
21.46667	12823
21.47500	13047
21.48333	13245
21.49167	13415
21.50000	13557
21.50833	13670
21.51667	13752
21.52500	13803
21.53333	13823
21.54167	13813
21.55000	13773
21.55833	13702
21.56667	13602
21.57500	13473
21.58333	13318
21.59167	13136
21.60000	12931
21.60833	12702
21.61667	12453
21.62500	12185
21.63333	11900
21.64167	11599
21.65000	11285
21.65833	10960
21.66667	10626
21.67500	10284
21.68333	9937
21.69167	9586
21.70000	9234
21.70833	8881
21.71667	8530
21.72500	8182
21.73333	7838
21.74167	7499
21.75000	7166
21.75833	6841
21.76667	6524
21.77500	6215
21.78333	5916
21.79167	5626
21.80000	5347
21.80833	5078
21.81667	4820
21.82500	4572
21.83333	4336
21.84167	4110
21.85000	3894
21.85833	3689
21.86667	3494
21.87500	3309
21.88333	3134
21.89167	2968
21.90000	2811
21.90833	2663
21.91667	2523
21.92500	2391
21.93333	2267
21.94167	2150
21.95000	2040
21.95833	1936
21.96667	1838
21.97500	1746
21.98333	1660
21.99167	1580
22.00000	1504
22.00833	1432
22.01667	1365
22.02500	1302
22.03333	1243
22.04167	1188
22.05000	1136
22.05833	1087
22.06667	1041
22.07500	998
22.08333	959
22.09167	922
22.10000	888
22.10833	856
22.11667	827
22.12500	799
22.13333	774
22.14167	750
22.15000	728
22.15833	707
22.16667	689
22.17500	672
22.18333	656
22.19167	641
22.20000	628
22.20833	616
22.21667	606
22.22500	597
22.23333	588
22.24167	580
22.25000	574
22.25833	568
22.26667	562
22.27500	557
22.28333	553
22.29167	549
22.30000	546
22.30833	544
22.31667	542
22.32500	540
22.33333	538
22.34167	536
22.35000	534
22.35833	533
22.36667	531
22.37500	530
22.38333	529
22.39167	528
22.40000	527
22.40833	526
22.41667	525
22.42500	523
22.43333	521
22.44167	519
22.45000	517
22.45833	515
22.46667	512
22.47500	509
22.48333	506
22.49167	503
22.50000	499
22.50833	495
22.51667	491
22.52500	486
22.53333	480
22.54167	474
22.55000	469
22.55833	463
22.56667	457
22.57500	451
22.58333	445
22.59167	439
22.60000	432
22.60833	426
22.61667	420
22.62500	413
22.63333	406
22.64167	399
22.65000	392
22.65833	385
22.66667	379
22.67500	373
22.68333	366
22.69167	359
22.70000	353
22.70833	347
22.71667	341
22.72500	336
22.73333	330
22.74167	325
22.75000	320
22.75833	316
22.76667	312
22.77500	308
22.78333	304
22.79167	301
22.80000	299
22.80833	297
22.81667	295
22.82500	293
22.83333	291
22.84167	290
22.85000	289
22.85833	288
22.86667	288
22.87500	287
22.88333	288
22.89167	289
22.90000	289
22.90833	290
22.91667	292
22.92500	293
22.93333	295
22.94167	296
22.95000	298
22.95833	301
22.96667	303
22.97500	306
22.98333	309
22.99167	312
23.00000	314
23.00833	317
23.01667	320
23.02500	323
23.03333	326
23.04167	329
23.05000	332
23.05833	335
23.06667	338
23.07500	340
23.08333	343
23.09167	345
23.10000	348
23.10833	350
23.11667	352
23.12500	355
23.13333	357
23.14167	359
23.15000	361
23.15833	363
23.16667	364
23.17500	366
23.18333	367
23.19167	368
23.20000	369
23.20833	370
23.21667	371
23.22500	372
23.23333	372
23.24167	372
23.25000	373
23.25833	373
23.26667	372
23.27500	372
23.28333	372
23.29167	372
23.30000	371
23.30833	372
23.31667	372
23.32500	372
23.33333	371
23.34167	371
23.35000	370
23.35833	370
23.36667	369
23.37500	368
23.38333	367
23.39167	366
23.40000	365
23.40833	365
23.41667	364
23.42500	363
23.43333	362
23.44167	362
23.45000	361
23.45833	360
23.46667	359
23.47500	359
23.48333	358
23.49167	357
23.50000	357
23.50833	356
23.51667	356
23.52500	355
23.53333	354
23.54167	354
23.55000	353
23.55833	353
23.56667	353
23.57500	352
23.58333	351
23.59167	351
23.60000	350
23.60833	350
23.61667	350
23.62500	350
23.63333	349
23.64167	349
23.65000	349
23.65833	349
23.66667	349
23.67500	349
23.68333	348
23.69167	348
23.70000	348
23.70833	348
23.71667	348
23.72500	348
23.73333	349
23.74167	349
23.75000	348
23.75833	348
23.76667	348
23.77500	348
23.78333	348
23.79167	349
23.80000	349
23.80833	349
23.81667	349
23.82500	348
23.83333	348
23.84167	349
23.85000	349
23.85833	349
23.86667	349
23.87500	349
23.88333	349
23.89167	349
23.90000	349
23.90833	349
23.91667	349
23.92500	349
23.93333	350
23.94167	350
23.95000	350
23.95833	351
23.96667	351
23.97500	352
23.98333	352
23.99167	351
24.00000	351
24.00833	351
24.01667	351
24.02500	351
24.03333	351
24.04167	351
24.05000	351
24.05833	350
24.06667	350
24.07500	350
24.08333	349
24.09167	349
24.10000	348
24.10833	347
24.11667	347
24.12500	346
24.13333	346
24.14167	345
24.15000	344
24.15833	343
24.16667	342
24.17500	341
24.18333	339
24.19167	338
24.20000	336
24.20833	334
24.21667	333
24.22500	332
24.23333	331
24.24167	329
24.25000	328
24.25833	326
24.26667	324
24.27500	321
24.28333	319
24.29167	317
24.30000	315
24.30833	313
24.31667	311
24.32500	309
24.33333	307
24.34167	305
24.35000	303
24.35833	302
24.36667	300
24.37500	297
24.38333	295
24.39167	293
24.40000	291
24.40833	289
24.41667	287
24.42500	286
24.43333	284
24.44167	282
24.45000	280
24.45833	279
24.46667	277
24.47500	276
24.48333	275
24.49167	274
24.50000	273
24.50833	271
24.51667	270
24.52500	269
24.53333	269
24.54167	268
24.55000	267
24.55833	267
24.56667	266
24.57500	266
24.58333	265
24.59167	265
24.60000	264
24.60833	264
24.61667	264
24.62500	264
24.63333	264
24.64167	264
24.65000	264
24.65833	264
24.66667	265
24.67500	265
24.68333	265
24.69167	266
24.70000	266
24.70833	266
24.71667	266
24.72500	267
24.73333	267
24.74167	268
24.75000	268
24.75833	269
24.76667	269
24.77500	269
24.78333	269
24.79167	270
24.80000	270
24.80833	271
24.81667	271
24.82500	272
24.83333	272
24.84167	272
24.85000	272
24.85833	272
24.86667	272
24.87500	272
24.88333	273
24.89167	273
24.90000	273
24.90833	272
24.91667	272
24.92500	272
24.93333	272
24.94167	273
24.95000	273
24.95833	273
24.96667	273
24.97500	273
24.98333	274
24.99167	274
25.00000	274
25.00833	274
25.01667	274
25.02500	273
25.03333	273
25.04167	273
25.05000	273
25.05833	273
25.06667	273
25.07500	273
25.08333	272
25.09167	272
25.10000	272
25.10833	272
25.11667	272
25.12500	272
25.13333	271
25.14167	271
25.15000	271
25.15833	271
25.16667	271
25.17500	271
25.18333	271
25.19167	271
25.20000	270
25.20833	270
25.21667	270
25.22500	271
25.23333	271
25.24167	270
25.25000	270
25.25833	270
25.26667	270
25.27500	270
25.28333	269
25.29167	269
25.30000	269
25.30833	269
25.31667	269
25.32500	269
25.33333	268
25.34167	268
25.35000	268
25.35833	268
25.36667	267
25.37500	268
25.38333	268
25.39167	268
25.40000	268
25.40833	269
25.41667	269
25.42500	269
25.43333	269
25.44167	269
25.45000	269
25.45833	270
25.46667	270
25.47500	270
25.48333	270
25.49167	271
25.50000	271
25.50833	271
25.51667	271
25.52500	272
25.53333	272
25.54167	273
25.55000	273
25.55833	273
25.56667	273
25.57500	273
25.58333	273
25.59167	273
25.60000	274
25.60833	274
25.61667	275
25.62500	276
25.63333	277
25.64167	277
25.65000	278
25.65833	279
25.66667	279
25.67500	280
25.68333	281
25.69167	281
25.70000	281
25.70833	282
25.71667	282
25.72500	283
25.73333	283
25.74167	284
25.75000	284
25.75833	285
25.76667	286
25.77500	287
25.78333	287
25.79167	288
25.80000	288
25.80833	289
25.81667	290
25.82500	291
25.83333	292
25.84167	293
25.85000	294
25.85833	295
25.86667	296
25.87500	298
25.88333	299
25.89167	300
25.90000	301
25.90833	302
25.91667	304
25.92500	306
25.93333	308
25.94167	310
25.95000	313
25.95833	315
25.96667	318
25.97500	320
25.98333	323
25.99167	326
26.00000	330
26.00833	333
26.01667	337
26.02500	342
26.03333	346
26.04167	350
26.05000	355
26.05833	360
26.06667	366
26.07500	373
26.08333	380
26.09167	387
26.10000	395
26.10833	404
26.11667	412
26.12500	422
26.13333	432
26.14167	442
26.15000	453
26.15833	465
26.16667	478
26.17500	491
26.18333	505
26.19167	520
26.20000	535
26.20833	552
26.21667	570
26.22500	588
26.23333	607
26.24167	628
26.25000	649
26.25833	671
26.26667	694
26.27500	718
26.28333	743
26.29167	769
26.30000	795
26.30833	822
26.31667	850
26.32500	878
26.33333	907
26.34167	937
26.35000	967
26.35833	997
26.36667	1028
26.37500	1058
26.38333	1089
26.39167	1119
26.40000	1149
26.40833	1178
26.41667	1207
26.42500	1235
26.43333	1262
26.44167	1289
26.45000	1313
26.45833	1337
26.46667	1359
26.47500	1380
26.48333	1398
26.49167	1416
26.50000	1431
26.50833	1444
26.51667	1455
26.52500	1464
26.53333	1471
26.54167	1476
26.55000	1478
26.55833	1478
26.56667	1476
26.57500	1472
26.58333	1466
26.59167	1458
26.60000	1447
26.60833	1435
26.61667	1421
26.62500	1404
26.63333	1386
26.64167	1367
26.65000	1345
26.65833	1323
26.66667	1299
26.67500	1274
26.68333	1248
26.69167	1221
26.70000	1193
26.70833	1164
26.71667	1135
26.72500	1106
26.73333	1077
26.74167	1048
26.75000	1019
26.75833	990
26.76667	961
26.77500	932
26.78333	904
26.79167	876
26.80000	848
26.80833	821
26.81667	795
26.82500	769
26.83333	745
26.84167	721
26.85000	697
26.85833	675
26.86667	653
26.87500	631
26.88333	611
26.89167	591
26.90000	572
26.90833	553
26.91667	536
26.92500	519
26.93333	503
26.94167	488
26.95000	473
26.95833	459
26.96667	446
26.97500	433
26.98333	421
26.99167	410
27.00000	399
27.00833	388
27.01667	378
27.02500	369
27.03333	359
27.04167	351
27.05000	342
27.05833	334
27.06667	326
27.07500	319
27.08333	312
27.09167	304
27.10000	298
27.10833	291
27.11667	285
27.12500	279
27.13333	273
27.14167	267
27.15000	261
27.15833	256
27.16667	251
27.17500	246
27.18333	241
27.19167	236
27.20000	232
27.20833	228
27.21667	224
27.22500	219
27.23333	215
27.24167	211
27.25000	207
27.25833	203
27.26667	200
27.27500	196
27.28333	192
27.29167	189
27.30000	185
27.30833	181
27.31667	178
27.32500	174
27.33333	171
27.34167	168
27.35000	165
27.35833	161
27.36667	159
27.37500	156
27.38333	153
27.39167	151
27.40000	148
27.40833	146
27.41667	143
27.42500	141
27.43333	139
27.44167	136
27.45000	134
27.45833	131
27.46667	129
27.47500	127
27.48333	124
27.49167	122
27.50000	120
27.50833	118
27.51667	116
27.52500	115
27.53333	113
27.54167	111
27.55000	109
27.55833	106
27.56667	105
27.57500	103
27.58333	101
27.59167	100
27.60000	99
27.60833	98
27.61667	97
27.62500	96
27.63333	94
27.64167	93
27.65000	92
27.65833	91
27.66667	90
27.67500	89
27.68333	88
27.69167	88
27.70000	87
27.70833	86
27.71667	86
27.72500	85
27.73333	84
27.74167	83
27.75000	82
27.75833	82
27.76667	81
27.77500	80
27.78333	79
27.79167	78
27.80000	78
27.80833	77
27.81667	77
27.82500	76
27.83333	75
27.84167	75
27.85000	74
27.85833	73
27.86667	73
27.87500	72
27.88333	72
27.89167	71
27.90000	70
27.90833	69
27.91667	69
27.92500	68
27.93333	67
27.94167	66
27.95000	66
27.95833	66
27.96667	65
27.97500	64
27.98333	63
27.99167	62
28.00000	62

