R.Time (min)	Intensity
0.00000	-1
0.00833	-1
0.01667	0
0.02500	1
0.03333	0
0.04167	0
0.05000	0
0.05833	0
0.06667	0
0.07500	-0
0.08333	-0
0.09167	0
0.10000	1
0.10833	1
0.11667	1
0.12500	1
0.13333	2
0.14167	1
0.15000	2
0.15833	2
0.16667	2
0.17500	2
0.18333	2
0.19167	3
0.20000	3
0.20833	3
0.21667	3
0.22500	3
0.23333	3
0.24167	4
0.25000	3
0.25833	3
0.26667	3
0.27500	4
0.28333	4
0.29167	4
0.30000	3
0.30833	3
0.31667	3
0.32500	3
0.33333	4
0.34167	3
0.35000	3
0.35833	3
0.36667	3
0.37500	3
0.38333	3
0.39167	3
0.40000	3
0.40833	2
0.41667	2
0.42500	2
0.43333	2
0.44167	2
0.45000	2
0.45833	1
0.46667	1
0.47500	1
0.48333	1
0.49167	1
0.50000	0
0.50833	-0
0.51667	-1
0.52500	-1
0.53333	-1
0.54167	-2
0.55000	-2
0.55833	-2
0.56667	-2
0.57500	-3
0.58333	-3
0.59167	-3
0.60000	-3
0.60833	-3
0.61667	-3
0.62500	-3
0.63333	-3
0.64167	-3
0.65000	-4
0.65833	-4
0.66667	-4
0.67500	-4
0.68333	-5
0.69167	-5
0.70000	-5
0.70833	-5
0.71667	-5
0.72500	-5
0.73333	-5
0.74167	-5
0.75000	-6
0.75833	-6
0.76667	-6
0.77500	-6
0.78333	-7
0.79167	-7
0.80000	-7
0.80833	-8
0.81667	-8
0.82500	-8
0.83333	-8
0.84167	-8
0.85000	-8
0.85833	-9
0.86667	-9
0.87500	-9
0.88333	-10
0.89167	-9
0.90000	-9
0.90833	-9
0.91667	-9
0.92500	-9
0.93333	-9
0.94167	-9
0.95000	-9
0.95833	-10
0.96667	-10
0.97500	-10
0.98333	-10
0.99167	-11
1.00000	-11
1.00833	-10
1.01667	-10
1.02500	-10
1.03333	-10
1.04167	-10
1.05000	-10
1.05833	-10
1.06667	-10
1.07500	-10
1.08333	-10
1.09167	-10
1.10000	-10
1.10833	-10
1.11667	-10
1.12500	-10
1.13333	-10
1.14167	-10
1.15000	-10
1.15833	-10
1.16667	-10
1.17500	-10
1.18333	-10
1.19167	-10
1.20000	-10
1.20833	-10
1.21667	-11
1.22500	-11
1.23333	-11
1.24167	-11
1.25000	-11
1.25833	-12
1.26667	-12
1.27500	-12
1.28333	-12
1.29167	-12
1.30000	-13
1.30833	-13
1.31667	-14
1.32500	-14
1.33333	-14
1.34167	-14
1.35000	-14
1.35833	-14
1.36667	-14
1.37500	-14
1.38333	-15
1.39167	-15
1.40000	-15
1.40833	-15
1.41667	-15
1.42500	-15
1.43333	-15
1.44167	-15
1.45000	-14
1.45833	-14
1.46667	-14
1.47500	-14
1.48333	-14
1.49167	-14
1.50000	-14
1.50833	-14
1.51667	-14
1.52500	-14
1.53333	-14
1.54167	-15
1.55000	-15
1.55833	-15
1.56667	-15
1.57500	-15
1.58333	-14
1.59167	-14
1.60000	-14
1.60833	-14
1.61667	-14
1.62500	-14
1.63333	-14
1.64167	-14
1.65000	-13
1.65833	-13
1.66667	-13
1.67500	-14
1.68333	-14
1.69167	-14
1.70000	-13
1.70833	-13
1.71667	-13
1.72500	-13
1.73333	-13
1.74167	-13
1.75000	-13
1.75833	-13
1.76667	-13
1.77500	-13
1.78333	-12
1.79167	-12
1.80000	-12
1.80833	-12
1.81667	-12
1.82500	-12
1.83333	-12
1.84167	-12
1.85000	-12
1.85833	-11
1.86667	-11
1.87500	-11
1.88333	-11
1.89167	-11
1.90000	-11
1.90833	-11
1.91667	-10
1.92500	-10
1.93333	-10
1.94167	-10
1.95000	-11
1.95833	-11
1.96667	-11
1.97500	-11
1.98333	-11
1.99167	-11
2.00000	-11
2.00833	-11
2.01667	-12
2.02500	-12
2.03333	-12
2.04167	-11
2.05000	-11
2.05833	-11
2.06667	-10
2.07500	-10
2.08333	-10
2.09167	-10
2.10000	-10
2.10833	-10
2.11667	-9
2.12500	-9
2.13333	-8
2.14167	-7
2.15000	-7
2.15833	-6
2.16667	-6
2.17500	-5
2.18333	-5
2.19167	-4
2.20000	-3
2.20833	-1
2.21667	-0
2.22500	1
2.23333	2
2.24167	3
2.25000	4
2.25833	6
2.26667	8
2.27500	10
2.28333	12
2.29167	14
2.30000	16
2.30833	18
2.31667	21
2.32500	23
2.33333	26
2.34167	28
2.35000	32
2.35833	35
2.36667	39
2.37500	42
2.38333	46
2.39167	51
2.40000	55
2.40833	60
2.41667	65
2.42500	70
2.43333	75
2.44167	81
2.45000	87
2.45833	94
2.46667	100
2.47500	107
2.48333	115
2.49167	123
2.50000	131
2.50833	140
2.51667	149
2.52500	159
2.53333	170
2.54167	181
2.55000	193
2.55833	205
2.56667	217
2.57500	231
2.58333	246
2.59167	261
2.60000	277
2.60833	293
2.61667	311
2.62500	329
2.63333	349
2.64167	370
2.65000	392
2.65833	414
2.66667	438
2.67500	463
2.68333	490
2.69167	518
2.70000	547
2.70833	578
2.71667	611
2.72500	646
2.73333	683
2.74167	721
2.75000	762
2.75833	804
2.76667	849
2.77500	896
2.78333	945
2.79167	998
2.80000	1053
2.80833	1110
2.81667	1170
2.82500	1234
2.83333	1300
2.84167	1371
2.85000	1445
2.85833	1523
2.86667	1605
2.87500	1691
2.88333	1782
2.89167	1876
2.90000	1974
2.90833	2077
2.91667	2185
2.92500	2297
2.93333	2414
2.94167	2536
2.95000	2663
2.95833	2795
2.96667	2933
2.97500	3075
2.98333	3223
2.99167	3377
3.00000	3535
3.00833	3698
3.01667	3865
3.02500	4037
3.03333	4214
3.04167	4395
3.05000	4579
3.05833	4768
3.06667	4960
3.07500	5154
3.08333	5351
3.09167	5550
3.10000	5751
3.10833	5953
3.11667	6154
3.12500	6356
3.13333	6557
3.14167	6758
3.15000	6956
3.15833	7151
3.16667	7344
3.17500	7532
3.18333	7716
3.19167	7895
3.20000	8067
3.20833	8232
3.21667	8390
3.22500	8540
3.23333	8682
3.24167	8813
3.25000	8935
3.25833	9046
3.26667	9147
3.27500	9237
3.28333	9314
3.29167	9380
3.30000	9434
3.30833	9476
3.31667	9505
3.32500	9521
3.33333	9525
3.34167	9516
3.35000	9494
3.35833	9460
3.36667	9413
3.37500	9354
3.38333	9284
3.39167	9202
3.40000	9108
3.40833	9005
3.41667	8892
3.42500	8768
3.43333	8635
3.44167	8493
3.45000	8344
3.45833	8186
3.46667	8022
3.47500	7852
3.48333	7677
3.49167	7496
3.50000	7311
3.50833	7122
3.51667	6930
3.52500	6735
3.53333	6539
3.54167	6341
3.55000	6142
3.55833	5944
3.56667	5745
3.57500	5548
3.58333	5352
3.59167	5158
3.60000	4966
3.60833	4777
3.61667	4590
3.62500	4406
3.63333	4227
3.64167	4051
3.65000	3879
3.65833	3712
3.66667	3548
3.67500	3389
3.68333	3235
3.69167	3086
3.70000	2942
3.70833	2803
3.71667	2669
3.72500	2540
3.73333	2416
3.74167	2297
3.75000	2183
3.75833	2073
3.76667	1968
3.77500	1868
3.78333	1773
3.79167	1682
3.80000	1596
3.80833	1514
3.81667	1436
3.82500	1362
3.83333	1293
3.84167	1227
3.85000	1164
3.85833	1105
3.86667	1049
3.87500	996
3.88333	946
3.89167	899
3.90000	855
3.90833	814
3.91667	774
3.92500	737
3.93333	703
3.94167	670
3.95000	639
3.95833	611
3.96667	584
3.97500	559
3.98333	535
3.99167	513
4.00000	492
4.00833	472
4.01667	453
4.02500	435
4.03333	419
4.04167	403
4.05000	389
4.05833	375
4.06667	362
4.07500	350
4.08333	338
4.09167	327
4.10000	317
4.10833	306
4.11667	297
4.12500	288
4.13333	279
4.14167	270
4.15000	262
4.15833	253
4.16667	246
4.17500	238
4.18333	231
4.19167	224
4.20000	218
4.20833	211
4.21667	205
4.22500	199
4.23333	193
4.24167	187
4.25000	182
4.25833	176
4.26667	171
4.27500	166
4.28333	161
4.29167	156
4.30000	152
4.30833	147
4.31667	143
4.32500	139
4.33333	135
4.34167	131
4.35000	127
4.35833	123
4.36667	120
4.37500	116
4.38333	113
4.39167	109
4.40000	106
4.40833	103
4.41667	101
4.42500	98
4.43333	96
4.44167	94
4.45000	92
4.45833	89
4.46667	87
4.47500	85
4.48333	83
4.49167	82
4.50000	80
4.50833	79
4.51667	77
4.52500	76
4.53333	75
4.54167	74
4.55000	73
4.55833	72
4.56667	71
4.57500	70
4.58333	69
4.59167	68
4.60000	67
4.60833	66
4.61667	66
4.62500	65
4.63333	65
4.64167	65
4.65000	64
4.65833	64
4.66667	64
4.67500	64
4.68333	64
4.69167	63
4.70000	63
4.70833	63
4.71667	63
4.72500	63
4.73333	64
4.74167	64
4.75000	64
4.75833	64
4.76667	65
4.77500	65
4.78333	66
4.79167	66
4.80000	66
4.80833	67
4.81667	67
4.82500	68
4.83333	68
4.84167	69
4.85000	69
4.85833	70
4.86667	71
4.87500	72
4.88333	72
4.89167	73
4.90000	74
4.90833	74
4.91667	74
4.92500	75
4.93333	75
4.94167	75
4.95000	76
4.95833	77
4.96667	78
4.97500	78
4.98333	79
4.99167	80
5.00000	80
5.00833	81
5.01667	81
5.02500	82
5.03333	83
5.04167	83
5.05000	83
5.05833	84
5.06667	85
5.07500	86
5.08333	86
5.09167	87
5.10000	87
5.10833	88
5.11667	89
5.12500	90
5.13333	90
5.14167	90
5.15000	91
5.15833	91
5.16667	92
5.17500	92
5.18333	92
5.19167	92
5.20000	92
5.20833	92
5.21667	92
5.22500	93
5.23333	93
5.24167	94
5.25000	95
5.25833	96
5.26667	96
5.27500	97
5.28333	98
5.29167	98
5.30000	98
5.30833	98
5.31667	99
5.32500	99
5.33333	99
5.34167	99
5.35000	99
5.35833	100
5.36667	100
5.37500	100
5.38333	101
5.39167	102
5.40000	102
5.40833	102
5.41667	103
5.42500	103
5.43333	104
5.44167	105
5.45000	105
5.45833	106
5.46667	107
5.47500	107
5.48333	108
5.49167	109
5.50000	109
5.50833	110
5.51667	110
5.52500	111
5.53333	111
5.54167	112
5.55000	112
5.55833	113
5.56667	114
5.57500	115
5.58333	116
5.59167	116
5.60000	117
5.60833	118
5.61667	119
5.62500	119
5.63333	119
5.64167	120
5.65000	120
5.65833	121
5.66667	122
5.67500	123
5.68333	123
5.69167	124
5.70000	125
5.70833	126
5.71667	126
5.72500	127
5.73333	127
5.74167	128
5.75000	129
5.75833	130
5.76667	130
5.77500	131
5.78333	131
5.79167	132
5.80000	132
5.80833	132
5.81667	133
5.82500	133
5.83333	133
5.84167	134
5.85000	135
5.85833	135
5.86667	136
5.87500	137
5.88333	137
5.89167	138
5.90000	138
5.90833	138
5.91667	138
5.92500	139
5.93333	139
5.94167	139
5.95000	139
5.95833	139
5.96667	140
5.97500	140
5.98333	141
5.99167	141
6.00000	141
6.00833	141
6.01667	141
6.02500	141
6.03333	141
6.04167	141
6.05000	141
6.05833	141
6.06667	141
6.07500	142
6.08333	142
6.09167	142
6.10000	142
6.10833	142
6.11667	142
6.12500	142
6.13333	143
6.14167	143
6.15000	144
6.15833	144
6.16667	144
6.17500	145
6.18333	145
6.19167	145
6.20000	145
6.20833	145
6.21667	145
6.22500	145
6.23333	145
6.24167	145
6.25000	144
6.25833	144
6.26667	144
6.27500	145
6.28333	145
6.29167	145
6.30000	145
6.30833	145
6.31667	145
6.32500	145
6.33333	144
6.34167	144
6.35000	144
6.35833	144
6.36667	144
6.37500	144
6.38333	144
6.39167	143
6.40000	143
6.40833	143
6.41667	142
6.42500	142
6.43333	142
6.44167	141
6.45000	141
6.45833	141
6.46667	140
6.47500	140
6.48333	140
6.49167	139
6.50000	139
6.50833	138
6.51667	138
6.52500	138
6.53333	137
6.54167	137
6.55000	136
6.55833	135
6.56667	135
6.57500	134
6.58333	133
6.59167	133
6.60000	132
6.60833	131
6.61667	131
6.62500	130
6.63333	129
6.64167	128
6.65000	127
6.65833	127
6.66667	126
6.67500	126
6.68333	125
6.69167	124
6.70000	123
6.70833	123
6.71667	122
6.72500	121
6.73333	121
6.74167	121
6.75000	120
6.75833	120
6.76667	120
6.77500	119
6.78333	119
6.79167	118
6.80000	118
6.80833	118
6.81667	118
6.82500	117
6.83333	117
6.84167	117
6.85000	116
6.85833	116
6.86667	116
6.87500	116
6.88333	116
6.89167	116
6.90000	116
6.90833	116
6.91667	116
6.92500	115
6.93333	115
6.94167	115
6.95000	115
6.95833	115
6.96667	116
6.97500	116
6.98333	116
6.99167	116
7.00000	116
7.00833	116
7.01667	116
7.02500	116
7.03333	117
7.04167	117
7.05000	117
7.05833	117
7.06667	118
7.07500	119
7.08333	121
7.09167	123
7.10000	126
7.10833	129
7.11667	133
7.12500	138
7.13333	145
7.14167	153
7.15000	162
7.15833	174
7.16667	187
7.17500	202
7.18333	219
7.19167	239
7.20000	261
7.20833	284
7.21667	310
7.22500	337
7.23333	365
7.24167	395
7.25000	425
7.25833	454
7.26667	482
7.27500	507
7.28333	527
7.29167	541
7.30000	545
7.30833	539
7.31667	521
7.32500	492
7.33333	454
7.34167	412
7.35000	374
7.35833	351
7.36667	357
7.37500	409
7.38333	526
7.39167	729
7.40000	1038
7.40833	1473
7.41667	2050
7.42500	2783
7.43333	3680
7.44167	4741
7.45000	5963
7.45833	7331
7.46667	8822
7.47500	10403
7.48333	12031
7.49167	13654
7.50000	15214
7.50833	16646
7.51667	17887
7.52500	18879
7.53333	19573
7.54167	19939
7.55000	19964
7.55833	19656
7.56667	19041
7.57500	18163
7.58333	17075
7.59167	15839
7.60000	14514
7.60833	13158
7.61667	11818
7.62500	10533
7.63333	9332
7.64167	8234
7.65000	7248
7.65833	6378
7.66667	5619
7.67500	4964
7.68333	4404
7.69167	3928
7.70000	3525
7.70833	3184
7.71667	2894
7.72500	2648
7.73333	2436
7.74167	2254
7.75000	2096
7.75833	1958
7.76667	1835
7.77500	1726
7.78333	1628
7.79167	1539
7.80000	1458
7.80833	1383
7.81667	1314
7.82500	1250
7.83333	1190
7.84167	1133
7.85000	1079
7.85833	1029
7.86667	980
7.87500	935
7.88333	891
7.89167	849
7.90000	810
7.90833	773
7.91667	738
7.92500	706
7.93333	677
7.94167	650
7.95000	625
7.95833	603
7.96667	584
7.97500	566
7.98333	552
7.99167	539
8.00000	529
8.00833	520
8.01667	513
8.02500	506
8.03333	500
8.04167	495
8.05000	490
8.05833	485
8.06667	479
8.07500	473
8.08333	467
8.09167	460
8.10000	453
8.10833	446
8.11667	439
8.12500	431
8.13333	423
8.14167	416
8.15000	408
8.15833	401
8.16667	393
8.17500	386
8.18333	379
8.19167	373
8.20000	367
8.20833	361
8.21667	355
8.22500	350
8.23333	346
8.24167	342
8.25000	339
8.25833	336
8.26667	333
8.27500	331
8.28333	329
8.29167	327
8.30000	326
8.30833	325
8.31667	324
8.32500	323
8.33333	322
8.34167	322
8.35000	321
8.35833	320
8.36667	320
8.37500	319
8.38333	319
8.39167	318
8.40000	317
8.40833	316
8.41667	315
8.42500	314
8.43333	313
8.44167	312
8.45000	311
8.45833	310
8.46667	309
8.47500	308
8.48333	307
8.49167	306
8.50000	305
8.50833	304
8.51667	303
8.52500	302
8.53333	301
8.54167	300
8.55000	299
8.55833	299
8.56667	298
8.57500	297
8.58333	297
8.59167	298
8.60000	298
8.60833	300
8.61667	302
8.62500	304
8.63333	308
8.64167	313
8.65000	320
8.65833	328
8.66667	337
8.67500	347
8.68333	359
8.69167	372
8.70000	387
8.70833	402
8.71667	418
8.72500	435
8.73333	451
8.74167	468
8.75000	484
8.75833	499
8.76667	513
8.77500	526
8.78333	537
8.79167	547
8.80000	555
8.80833	561
8.81667	566
8.82500	570
8.83333	573
8.84167	576
8.85000	579
8.85833	583
8.86667	588
8.87500	596
8.88333	608
8.89167	623
8.90000	644
8.90833	671
8.91667	705
8.92500	747
8.93333	797
8.94167	858
8.95000	928
8.95833	1007
8.96667	1096
8.97500	1194
8.98333	1301
8.99167	1415
9.00000	1534
9.00833	1656
9.01667	1780
9.02500	1902
9.03333	2021
9.04167	2133
9.05000	2236
9.05833	2329
9.06667	2407
9.07500	2471
9.08333	2518
9.09167	2549
9.10000	2563
9.10833	2559
9.11667	2539
9.12500	2503
9.13333	2453
9.14167	2391
9.15000	2317
9.15833	2234
9.16667	2143
9.17500	2048
9.18333	1949
9.19167	1848
9.20000	1748
9.20833	1649
9.21667	1552
9.22500	1459
9.23333	1370
9.24167	1286
9.25000	1207
9.25833	1135
9.26667	1067
9.27500	1005
9.28333	949
9.29167	899
9.30000	853
9.30833	813
9.31667	777
9.32500	746
9.33333	719
9.34167	696
9.35000	677
9.35833	662
9.36667	650
9.37500	642
9.38333	638
9.39167	638
9.40000	643
9.40833	652
9.41667	668
9.42500	690
9.43333	720
9.44167	760
9.45000	811
9.45833	877
9.46667	959
9.47500	1062
9.48333	1189
9.49167	1344
9.50000	1533
9.50833	1761
9.51667	2032
9.52500	2353
9.53333	2727
9.54167	3161
9.55000	3657
9.55833	4218
9.56667	4846
9.57500	5541
9.58333	6300
9.59167	7120
9.60000	7993
9.60833	8913
9.61667	9867
9.62500	10843
9.63333	11829
9.64167	12809
9.65000	13768
9.65833	14691
9.66667	15563
9.67500	16369
9.68333	17098
9.69167	17738
9.70000	18281
9.70833	18722
9.71667	19058
9.72500	19289
9.73333	19418
9.74167	19449
9.75000	19391
9.75833	19253
9.76667	19046
9.77500	18782
9.78333	18472
9.79167	18130
9.80000	17768
9.80833	17399
9.81667	17034
9.82500	16683
9.83333	16356
9.84167	16060
9.85000	15801
9.85833	15586
9.86667	15418
9.87500	15300
9.88333	15234
9.89167	15220
9.90000	15259
9.90833	15349
9.91667	15489
9.92500	15677
9.93333	15911
9.94167	16189
9.95000	16506
9.95833	16860
9.96667	17248
9.97500	17667
9.98333	18114
9.99167	18586
10.00000	19078
10.00833	19588
10.01667	20112
10.02500	20646
10.03333	21185
10.04167	21722
10.05000	22247
10.05833	22745
10.06667	23197
10.07500	23573
10.08333	23840
10.09167	23959
10.10000	23891
10.10833	23602
10.11667	23069
10.12500	22283
10.13333	21257
10.14167	20018
10.15000	18611
10.15833	17089
10.16667	15510
10.17500	13929
10.18333	12393
10.19167	10939
10.20000	9595
10.20833	8377
10.21667	7292
10.22500	6340
10.23333	5513
10.24167	4803
10.25000	4199
10.25833	3686
10.26667	3254
10.27500	2890
10.28333	2584
10.29167	2325
10.30000	2107
10.30833	1923
10.31667	1765
10.32500	1629
10.33333	1512
10.34167	1410
10.35000	1320
10.35833	1240
10.36667	1169
10.37500	1104
10.38333	1045
10.39167	992
10.40000	942
10.40833	896
10.41667	854
10.42500	816
10.43333	780
10.44167	746
10.45000	716
10.45833	687
10.46667	661
10.47500	638
10.48333	617
10.49167	599
10.50000	582
10.50833	568
10.51667	556
10.52500	546
10.53333	537
10.54167	531
10.55000	526
10.55833	522
10.56667	520
10.57500	518
10.58333	517
10.59167	516
10.60000	515
10.60833	514
10.61667	513
10.62500	510
10.63333	507
10.64167	503
10.65000	498
10.65833	491
10.66667	484
10.67500	475
10.68333	465
10.69167	455
10.70000	444
10.70833	432
10.71667	421
10.72500	409
10.73333	398
10.74167	386
10.75000	375
10.75833	364
10.76667	353
10.77500	343
10.78333	334
10.79167	325
10.80000	317
10.80833	310
10.81667	304
10.82500	298
10.83333	293
10.84167	288
10.85000	285
10.85833	282
10.86667	280
10.87500	277
10.88333	275
10.89167	273
10.90000	272
10.90833	270
10.91667	269
10.92500	267
10.93333	265
10.94167	264
10.95000	262
10.95833	261
10.96667	259
10.97500	257
10.98333	255
10.99167	253
11.00000	251
11.00833	249
11.01667	247
11.02500	245
11.03333	243
11.04167	242
11.05000	240
11.05833	239
11.06667	239
11.07500	239
11.08333	239
11.09167	239
11.10000	239
11.10833	239
11.11667	240
11.12500	241
11.13333	243
11.14167	244
11.15000	246
11.15833	249
11.16667	252
11.17500	255
11.18333	259
11.19167	262
11.20000	265
11.20833	269
11.21667	273
11.22500	277
11.23333	281
11.24167	285
11.25000	289
11.25833	293
11.26667	297
11.27500	300
11.28333	304
11.29167	308
11.30000	311
11.30833	314
11.31667	316
11.32500	318
11.33333	320
11.34167	322
11.35000	323
11.35833	323
11.36667	323
11.37500	323
11.38333	321
11.39167	319
11.40000	317
11.40833	315
11.41667	312
11.42500	309
11.43333	305
11.44167	302
11.45000	298
11.45833	294
11.46667	290
11.47500	286
11.48333	281
11.49167	277
11.50000	273
11.50833	269
11.51667	266
11.52500	262
11.53333	259
11.54167	256
11.55000	253
11.55833	251
11.56667	249
11.57500	247
11.58333	245
11.59167	243
11.60000	242
11.60833	240
11.61667	239
11.62500	237
11.63333	236
11.64167	235
11.65000	234
11.65833	234
11.66667	233
11.67500	233
11.68333	233
11.69167	232
11.70000	232
11.70833	232
11.71667	231
11.72500	231
11.73333	230
11.74167	230
11.75000	230
11.75833	230
11.76667	230
11.77500	229
11.78333	229
11.79167	229
11.80000	229
11.80833	228
11.81667	227
11.82500	226
11.83333	225
11.84167	224
11.85000	223
11.85833	222
11.86667	221
11.87500	220
11.88333	219
11.89167	218
11.90000	216
11.90833	215
11.91667	213
11.92500	212
11.93333	210
11.94167	209
11.95000	208
11.95833	207
11.96667	206
11.97500	205
11.98333	204
11.99167	203
12.00000	203
12.00833	203
12.01667	203
12.02500	203
12.03333	203
12.04167	204
12.05000	205
12.05833	206
12.06667	208
12.07500	209
12.08333	210
12.09167	211
12.10000	212
12.10833	214
12.11667	215
12.12500	216
12.13333	217
12.14167	217
12.15000	217
12.15833	217
12.16667	217
12.17500	217
12.18333	218
12.19167	218
12.20000	218
12.20833	218
12.21667	218
12.22500	219
12.23333	218
12.24167	218
12.25000	218
12.25833	217
12.26667	217
12.27500	216
12.28333	215
12.29167	214
12.30000	213
12.30833	212
12.31667	211
12.32500	209
12.33333	207
12.34167	206
12.35000	204
12.35833	202
12.36667	200
12.37500	199
12.38333	198
12.39167	196
12.40000	194
12.40833	193
12.41667	191
12.42500	189
12.43333	187
12.44167	185
12.45000	184
12.45833	183
12.46667	182
12.47500	181
12.48333	180
12.49167	179
12.50000	178
12.50833	177
12.51667	176
12.52500	176
12.53333	175
12.54167	174
12.55000	174
12.55833	173
12.56667	173
12.57500	173
12.58333	174
12.59167	174
12.60000	174
12.60833	174
12.61667	174
12.62500	174
12.63333	174
12.64167	175
12.65000	175
12.65833	176
12.66667	177
12.67500	178
12.68333	178
12.69167	179
12.70000	180
12.70833	181
12.71667	181
12.72500	182
12.73333	183
12.74167	183
12.75000	184
12.75833	185
12.76667	186
12.77500	187
12.78333	187
12.79167	188
12.80000	189
12.80833	190
12.81667	191
12.82500	192
12.83333	193
12.84167	194
12.85000	195
12.85833	196
12.86667	197
12.87500	198
12.88333	199
12.89167	201
12.90000	202
12.90833	203
12.91667	205
12.92500	207
12.93333	209
12.94167	211
12.95000	213
12.95833	215
12.96667	217
12.97500	219
12.98333	221
12.99167	223
13.00000	226
13.00833	228
13.01667	231
13.02500	233
13.03333	235
13.04167	237
13.05000	239
13.05833	240
13.06667	242
13.07500	243
13.08333	244
13.09167	245
13.10000	246
13.10833	246
13.11667	246
13.12500	246
13.13333	245
13.14167	244
13.15000	244
13.15833	243
13.16667	242
13.17500	241
13.18333	240
13.19167	239
13.20000	238
13.20833	237
13.21667	235
13.22500	234
13.23333	233
13.24167	232
13.25000	231
13.25833	230
13.26667	229
13.27500	229
13.28333	228
13.29167	227
13.30000	227
13.30833	226
13.31667	226
13.32500	227
13.33333	227
13.34167	227
13.35000	227
13.35833	227
13.36667	227
13.37500	228
13.38333	228
13.39167	228
13.40000	229
13.40833	229
13.41667	230
13.42500	230
13.43333	231
13.44167	231
13.45000	232
13.45833	233
13.46667	234
13.47500	235
13.48333	236
13.49167	238
13.50000	239
13.50833	241
13.51667	243
13.52500	245
13.53333	247
13.54167	249
13.55000	251
13.55833	254
13.56667	257
13.57500	260
13.58333	264
13.59167	269
13.60000	274
13.60833	279
13.61667	285
13.62500	290
13.63333	297
13.64167	304
13.65000	312
13.65833	319
13.66667	328
13.67500	336
13.68333	344
13.69167	353
13.70000	362
13.70833	370
13.71667	379
13.72500	387
13.73333	394
13.74167	402
13.75000	410
13.75833	417
13.76667	423
13.77500	429
13.78333	434
13.79167	440
13.80000	445
13.80833	450
13.81667	455
13.82500	460
13.83333	466
13.84167	472
13.85000	478
13.85833	485
13.86667	492
13.87500	499
13.88333	506
13.89167	514
13.90000	521
13.90833	529
13.91667	537
13.92500	544
13.93333	551
13.94167	558
13.95000	564
13.95833	570
13.96667	574
13.97500	577
13.98333	580
13.99167	581
14.00000	581
14.00833	579
14.01667	577
14.02500	574
14.03333	570
14.04167	565
14.05000	559
14.05833	552
14.06667	544
14.07500	535
14.08333	527
14.09167	518
14.10000	509
14.10833	499
14.11667	490
14.12500	482
14.13333	473
14.14167	465
14.15000	457
14.15833	450
14.16667	443
14.17500	436
14.18333	430
14.19167	424
14.20000	419
14.20833	414
14.21667	410
14.22500	406
14.23333	403
14.24167	400
14.25000	397
14.25833	395
14.26667	393
14.27500	392
14.28333	391
14.29167	390
14.30000	390
14.30833	389
14.31667	389
14.32500	389
14.33333	389
14.34167	389
14.35000	390
14.35833	391
14.36667	392
14.37500	393
14.38333	394
14.39167	394
14.40000	396
14.40833	397
14.41667	399
14.42500	401
14.43333	402
14.44167	403
14.45000	404
14.45833	405
14.46667	406
14.47500	407
14.48333	408
14.49167	408
14.50000	409
14.50833	410
14.51667	411
14.52500	411
14.53333	412
14.54167	412
14.55000	412
14.55833	412
14.56667	412
14.57500	412
14.58333	411
14.59167	411
14.60000	411
14.60833	410
14.61667	409
14.62500	409
14.63333	408
14.64167	407
14.65000	407
14.65833	406
14.66667	405
14.67500	404
14.68333	403
14.69167	401
14.70000	400
14.70833	399
14.71667	398
14.72500	397
14.73333	396
14.74167	395
14.75000	394
14.75833	393
14.76667	391
14.77500	390
14.78333	388
14.79167	387
14.80000	386
14.80833	384
14.81667	383
14.82500	382
14.83333	381
14.84167	380
14.85000	379
14.85833	378
14.86667	377
14.87500	376
14.88333	375
14.89167	374
14.90000	373
14.90833	372
14.91667	371
14.92500	371
14.93333	370
14.94167	369
14.95000	369
14.95833	368
14.96667	368
14.97500	367
14.98333	367
14.99167	367
15.00000	367
15.00833	367
15.01667	367
15.02500	367
15.03333	368
15.04167	368
15.05000	369
15.05833	371
15.06667	372
15.07500	374
15.08333	376
15.09167	379
15.10000	382
15.10833	385
15.11667	389
15.12500	393
15.13333	398
15.14167	403
15.15000	409
15.15833	414
15.16667	420
15.17500	427
15.18333	433
15.19167	440
15.20000	447
15.20833	454
15.21667	461
15.22500	467
15.23333	472
15.24167	477
15.25000	482
15.25833	486
15.26667	489
15.27500	492
15.28333	494
15.29167	494
15.30000	494
15.30833	493
15.31667	490
15.32500	487
15.33333	483
15.34167	478
15.35000	472
15.35833	466
15.36667	459
15.37500	451
15.38333	442
15.39167	434
15.40000	425
15.40833	415
15.41667	406
15.42500	397
15.43333	388
15.44167	380
15.45000	371
15.45833	363
15.46667	354
15.47500	346
15.48333	338
15.49167	330
15.50000	323
15.50833	316
15.51667	309
15.52500	303
15.53333	297
15.54167	292
15.55000	287
15.55833	282
15.56667	278
15.57500	274
15.58333	270
15.59167	266
15.60000	262
15.60833	259
15.61667	256
15.62500	253
15.63333	251
15.64167	248
15.65000	246
15.65833	244
15.66667	243
15.67500	241
15.68333	240
15.69167	238
15.70000	237
15.70833	235
15.71667	234
15.72500	233
15.73333	233
15.74167	232
15.75000	231
15.75833	230
15.76667	230
15.77500	229
15.78333	229
15.79167	228
15.80000	228
15.80833	228
15.81667	228
15.82500	228
15.83333	228
15.84167	228
15.85000	229
15.85833	229
15.86667	229
15.87500	230
15.88333	230
15.89167	231
15.90000	232
15.90833	233
15.91667	235
15.92500	237
15.93333	240
15.94167	243
15.95000	246
15.95833	250
15.96667	254
15.97500	259
15.98333	264
15.99167	270
16.00000	277
16.00833	285
16.01667	293
16.02500	301
16.03333	310
16.04167	320
16.05000	329
16.05833	339
16.06667	349
16.07500	359
16.08333	369
16.09167	379
16.10000	389
16.10833	399
16.11667	408
16.12500	416
16.13333	423
16.14167	429
16.15000	434
16.15833	438
16.16667	441
16.17500	442
16.18333	443
16.19167	443
16.20000	442
16.20833	440
16.21667	437
16.22500	433
16.23333	429
16.24167	424
16.25000	419
16.25833	413
16.26667	408
16.27500	402
16.28333	397
16.29167	391
16.30000	386
16.30833	382
16.31667	378
16.32500	375
16.33333	373
16.34167	371
16.35000	370
16.35833	370
16.36667	371
16.37500	373
16.38333	376
16.39167	379
16.40000	384
16.40833	390
16.41667	396
16.42500	404
16.43333	413
16.44167	423
16.45000	433
16.45833	445
16.46667	459
16.47500	473
16.48333	489
16.49167	506
16.50000	523
16.50833	541
16.51667	560
16.52500	580
16.53333	601
16.54167	622
16.55000	644
16.55833	666
16.56667	688
16.57500	710
16.58333	731
16.59167	752
16.60000	772
16.60833	791
16.61667	808
16.62500	824
16.63333	839
16.64167	850
16.65000	860
16.65833	867
16.66667	871
16.67500	874
16.68333	873
16.69167	870
16.70000	864
16.70833	857
16.71667	846
16.72500	834
16.73333	819
16.74167	803
16.75000	785
16.75833	765
16.76667	744
16.77500	722
16.78333	699
16.79167	676
16.80000	652
16.80833	629
16.81667	606
16.82500	583
16.83333	560
16.84167	538
16.85000	516
16.85833	496
16.86667	476
16.87500	457
16.88333	439
16.89167	421
16.90000	405
16.90833	390
16.91667	376
16.92500	362
16.93333	349
16.94167	337
16.95000	326
16.95833	315
16.96667	306
16.97500	296
16.98333	288
16.99167	280
17.00000	273
17.00833	266
17.01667	260
17.02500	254
17.03333	248
17.04167	243
17.05000	237
17.05833	232
17.06667	227
17.07500	223
17.08333	219
17.09167	215
17.10000	212
17.10833	209
17.11667	206
17.12500	203
17.13333	201
17.14167	198
17.15000	195
17.15833	193
17.16667	191
17.17500	189
17.18333	187
17.19167	185
17.20000	183
17.20833	181
17.21667	179
17.22500	177
17.23333	176
17.24167	175
17.25000	173
17.25833	172
17.26667	170
17.27500	169
17.28333	168
17.29167	167
17.30000	166
17.30833	165
17.31667	164
17.32500	163
17.33333	162
17.34167	161
17.35000	161
17.35833	160
17.36667	160
17.37500	160
17.38333	159
17.39167	159
17.40000	159
17.40833	159
17.41667	158
17.42500	158
17.43333	158
17.44167	158
17.45000	158
17.45833	158
17.46667	159
17.47500	159
17.48333	159
17.49167	160
17.50000	160
17.50833	161
17.51667	161
17.52500	162
17.53333	162
17.54167	163
17.55000	163
17.55833	164
17.56667	164
17.57500	165
17.58333	166
17.59167	168
17.60000	169
17.60833	171
17.61667	173
17.62500	175
17.63333	178
17.64167	181
17.65000	184
17.65833	187
17.66667	191
17.67500	195
17.68333	199
17.69167	204
17.70000	210
17.70833	216
17.71667	222
17.72500	230
17.73333	238
17.74167	247
17.75000	257
17.75833	268
17.76667	280
17.77500	294
17.78333	309
17.79167	326
17.80000	345
17.80833	365
17.81667	387
17.82500	411
17.83333	438
17.84167	468
17.85000	501
17.85833	538
17.86667	578
17.87500	623
17.88333	672
17.89167	725
17.90000	784
17.90833	847
17.91667	917
17.92500	992
17.93333	1073
17.94167	1161
17.95000	1255
17.95833	1354
17.96667	1461
17.97500	1573
17.98333	1690
17.99167	1812
18.00000	1939
18.00833	2069
18.01667	2203
18.02500	2338
18.03333	2473
18.04167	2609
18.05000	2742
18.05833	2873
18.06667	3000
18.07500	3121
18.08333	3235
18.09167	3341
18.10000	3438
18.10833	3524
18.11667	3599
18.12500	3661
18.13333	3710
18.14167	3746
18.15000	3768
18.15833	3776
18.16667	3769
18.17500	3749
18.18333	3716
18.19167	3669
18.20000	3610
18.20833	3540
18.21667	3460
18.22500	3370
18.23333	3272
18.24167	3167
18.25000	3057
18.25833	2941
18.26667	2822
18.27500	2700
18.28333	2577
18.29167	2454
18.30000	2331
18.30833	2210
18.31667	2090
18.32500	1974
18.33333	1861
18.34167	1752
18.35000	1648
18.35833	1547
18.36667	1452
18.37500	1361
18.38333	1275
18.39167	1194
18.40000	1119
18.40833	1048
18.41667	982
18.42500	920
18.43333	863
18.44167	811
18.45000	762
18.45833	716
18.46667	674
18.47500	634
18.48333	599
18.49167	566
18.50000	536
18.50833	508
18.51667	483
18.52500	460
18.53333	439
18.54167	419
18.55000	402
18.55833	386
18.56667	371
18.57500	358
18.58333	346
18.59167	336
18.60000	327
18.60833	318
18.61667	311
18.62500	304
18.63333	299
18.64167	295
18.65000	292
18.65833	290
18.66667	288
18.67500	287
18.68333	287
18.69167	288
18.70000	289
18.70833	291
18.71667	294
18.72500	299
18.73333	303
18.74167	308
18.75000	314
18.75833	321
18.76667	328
18.77500	336
18.78333	344
18.79167	353
18.80000	362
18.80833	372
18.81667	381
18.82500	391
18.83333	401
18.84167	410
18.85000	419
18.85833	428
18.86667	436
18.87500	444
18.88333	451
18.89167	457
18.90000	463
18.90833	468
18.91667	472
18.92500	475
18.93333	477
18.94167	478
18.95000	479
18.95833	478
18.96667	476
18.97500	473
18.98333	469
18.99167	465
19.00000	459
19.00833	453
19.01667	446
19.02500	439
19.03333	430
19.04167	421
19.05000	412
19.05833	402
19.06667	392
19.07500	381
19.08333	371
19.09167	360
19.10000	350
19.10833	340
19.11667	329
19.12500	319
19.13333	308
19.14167	299
19.15000	289
19.15833	280
19.16667	272
19.17500	264
19.18333	256
19.19167	248
19.20000	241
19.20833	235
19.21667	228
19.22500	222
19.23333	216
19.24167	212
19.25000	208
19.25833	203
19.26667	199
19.27500	195
19.28333	192
19.29167	189
19.30000	186
19.30833	183
19.31667	181
19.32500	179
19.33333	178
19.34167	176
19.35000	176
19.35833	175
19.36667	174
19.37500	173
19.38333	173
19.39167	173
19.40000	172
19.40833	172
19.41667	172
19.42500	172
19.43333	172
19.44167	172
19.45000	172
19.45833	172
19.46667	172
19.47500	172
19.48333	172
19.49167	173
19.50000	173
19.50833	173
19.51667	173
19.52500	173
19.53333	173
19.54167	173
19.55000	173
19.55833	172
19.56667	172
19.57500	171
19.58333	171
19.59167	171
19.60000	170
19.60833	170
19.61667	169
19.62500	169
19.63333	170
19.64167	169
19.65000	169
19.65833	169
19.66667	168
19.67500	168
19.68333	167
19.69167	166
19.70000	165
19.70833	165
19.71667	164
19.72500	164
19.73333	163
19.74167	163
19.75000	162
19.75833	162
19.76667	161
19.77500	161
19.78333	161
19.79167	160
19.80000	160
19.80833	159
19.81667	158
19.82500	158
19.83333	158
19.84167	158
19.85000	158
19.85833	157
19.86667	157
19.87500	157
19.88333	156
19.89167	156
19.90000	155
19.90833	155
19.91667	154
19.92500	154
19.93333	154
19.94167	154
19.95000	154
19.95833	154
19.96667	154
19.97500	154
19.98333	154
19.99167	153
20.00000	153
20.00833	153
20.01667	153
20.02500	153
20.03333	154
20.04167	154
20.05000	154
20.05833	154
20.06667	154
20.07500	154
20.08333	154
20.09167	154
20.10000	155
20.10833	155
20.11667	155
20.12500	155
20.13333	154
20.14167	154
20.15000	154
20.15833	154
20.16667	154
20.17500	154
20.18333	155
20.19167	155
20.20000	156
20.20833	156
20.21667	156
20.22500	156
20.23333	157
20.24167	157
20.25000	158
20.25833	158
20.26667	159
20.27500	159
20.28333	160
20.29167	161
20.30000	162
20.30833	162
20.31667	163
20.32500	163
20.33333	164
20.34167	165
20.35000	166
20.35833	167
20.36667	168
20.37500	169
20.38333	170
20.39167	172
20.40000	174
20.40833	176
20.41667	179
20.42500	181
20.43333	183
20.44167	186
20.45000	189
20.45833	192
20.46667	196
20.47500	199
20.48333	203
20.49167	208
20.50000	213
20.50833	218
20.51667	224
20.52500	229
20.53333	235
20.54167	242
20.55000	249
20.55833	257
20.56667	264
20.57500	273
20.58333	283
20.59167	293
20.60000	305
20.60833	317
20.61667	330
20.62500	344
20.63333	360
20.64167	376
20.65000	394
20.65833	413
20.66667	433
20.67500	454
20.68333	477
20.69167	502
20.70000	527
20.70833	554
20.71667	582
20.72500	611
20.73333	642
20.74167	674
20.75000	707
20.75833	740
20.76667	775
20.77500	811
20.78333	847
20.79167	884
20.80000	921
20.80833	959
20.81667	997
20.82500	1036
20.83333	1074
20.84167	1112
20.85000	1149
20.85833	1187
20.86667	1223
20.87500	1259
20.88333	1293
20.89167	1327
20.90000	1360
20.90833	1392
20.91667	1423
20.92500	1453
20.93333	1482
20.94167	1511
20.95000	1538
20.95833	1565
20.96667	1591
20.97500	1616
20.98333	1642
20.99167	1667
21.00000	1692
21.00833	1718
21.01667	1743
21.02500	1770
21.03333	1798
21.04167	1826
21.05000	1857
21.05833	1889
21.06667	1924
21.07500	1962
21.08333	2002
21.09167	2046
21.10000	2095
21.10833	2147
21.11667	2204
21.12500	2267
21.13333	2335
21.14167	2411
21.15000	2493
21.15833	2583
21.16667	2681
21.17500	2789
21.18333	2906
21.19167	3034
21.20000	3172
21.20833	3323
21.21667	3485
21.22500	3661
21.23333	3849
21.24167	4052
21.25000	4269
21.25833	4501
21.26667	4747
21.27500	5009
21.28333	5285
21.29167	5575
21.30000	5880
21.30833	6198
21.31667	6528
21.32500	6870
21.33333	7223
21.34167	7585
21.35000	7955
21.35833	8330
21.36667	8711
21.37500	9093
21.38333	9475
21.39167	9856
21.40000	10232
21.40833	10601
21.41667	10961
21.42500	11310
21.43333	11644
21.44167	11962
21.45000	12262
21.45833	12541
21.46667	12796
21.47500	13027
21.48333	13232
21.49167	13409
21.50000	13557
21.50833	13674
21.51667	13761
21.52500	13817
21.53333	13841
21.54167	13834
21.55000	13795
21.55833	13726
21.56667	13627
21.57500	13500
21.58333	13344
21.59167	13162
21.60000	12956
21.60833	12726
21.61667	12475
21.62500	12204
21.63333	11916
21.64167	11612
21.65000	11294
21.65833	10965
21.66667	10626
21.67500	10280
21.68333	9928
21.69167	9573
21.70000	9215
21.70833	8857
21.71667	8500
21.72500	8146
21.73333	7796
21.74167	7451
21.75000	7113
21.75833	6782
21.76667	6458
21.77500	6144
21.78333	5839
21.79167	5544
21.80000	5259
21.80833	4985
21.81667	4722
21.82500	4469
21.83333	4227
21.84167	3997
21.85000	3776
21.85833	3567
21.86667	3367
21.87500	3178
21.88333	2999
21.89167	2829
21.90000	2669
21.90833	2517
21.91667	2374
21.92500	2239
21.93333	2112
21.94167	1992
21.95000	1879
21.95833	1773
21.96667	1674
21.97500	1580
21.98333	1492
21.99167	1409
22.00000	1331
22.00833	1258
22.01667	1190
22.02500	1127
22.03333	1068
22.04167	1012
22.05000	960
22.05833	912
22.06667	867
22.07500	825
22.08333	786
22.09167	750
22.10000	716
22.10833	685
22.11667	656
22.12500	629
22.13333	605
22.14167	582
22.15000	562
22.15833	543
22.16667	526
22.17500	510
22.18333	495
22.19167	483
22.20000	472
22.20833	462
22.21667	452
22.22500	444
22.23333	436
22.24167	430
22.25000	425
22.25833	420
22.26667	415
22.27500	411
22.28333	408
22.29167	405
22.30000	402
22.30833	399
22.31667	397
22.32500	395
22.33333	393
22.34167	391
22.35000	389
22.35833	387
22.36667	385
22.37500	382
22.38333	380
22.39167	377
22.40000	374
22.40833	371
22.41667	367
22.42500	363
22.43333	359
22.44167	355
22.45000	350
22.45833	345
22.46667	340
22.47500	335
22.48333	329
22.49167	323
22.50000	317
22.50833	311
22.51667	305
22.52500	298
22.53333	291
22.54167	283
22.55000	275
22.55833	268
22.56667	260
22.57500	252
22.58333	243
22.59167	235
22.60000	227
22.60833	219
22.61667	211
22.62500	202
22.63333	194
22.64167	186
22.65000	178
22.65833	170
22.66667	162
22.67500	154
22.68333	147
22.69167	139
22.70000	132
22.70833	126
22.71667	119
22.72500	113
22.73333	107
22.74167	100
22.75000	94
22.75833	89
22.76667	84
22.77500	79
22.78333	74
22.79167	70
22.80000	67
22.80833	63
22.81667	60
22.82500	58
22.83333	56
22.84167	54
22.85000	52
22.85833	51
22.86667	50
22.87500	50
22.88333	49
22.89167	49
22.90000	49
22.90833	50
22.91667	51
22.92500	52
22.93333	53
22.94167	55
22.95000	57
22.95833	59
22.96667	61
22.97500	63
22.98333	65
22.99167	67
23.00000	70
23.00833	72
23.01667	75
23.02500	78
23.03333	81
23.04167	84
23.05000	87
23.05833	89
23.06667	92
23.07500	94
23.08333	97
23.09167	100
23.10000	102
23.10833	105
23.11667	107
23.12500	109
23.13333	111
23.14167	113
23.15000	114
23.15833	116
23.16667	118
23.17500	120
23.18333	122
23.19167	123
23.20000	124
23.20833	125
23.21667	125
23.22500	126
23.23333	126
23.24167	126
23.25000	127
23.25833	127
23.26667	127
23.27500	127
23.28333	127
23.29167	127
23.30000	128
23.30833	128
23.31667	128
23.32500	128
23.33333	127
23.34167	127
23.35000	126
23.35833	126
23.36667	126
23.37500	125
23.38333	125
23.39167	124
23.40000	124
23.40833	123
23.41667	123
23.42500	123
23.43333	123
23.44167	123
23.45000	122
23.45833	122
23.46667	121
23.47500	121
23.48333	121
23.49167	121
23.50000	121
23.50833	120
23.51667	120
23.52500	119
23.53333	119
23.54167	118
23.55000	118
23.55833	117
23.56667	117
23.57500	117
23.58333	117
23.59167	117
23.60000	117
23.60833	117
23.61667	117
23.62500	117
23.63333	117
23.64167	117
23.65000	117
23.65833	117
23.66667	117
23.67500	117
23.68333	118
23.69167	118
23.70000	118
23.70833	118
23.71667	118
23.72500	118
23.73333	119
23.74167	120
23.75000	120
23.75833	120
23.76667	121
23.77500	122
23.78333	122
23.79167	123
23.80000	123
23.80833	124
23.81667	124
23.82500	125
23.83333	125
23.84167	126
23.85000	126
23.85833	126
23.86667	127
23.87500	127
23.88333	127
23.89167	128
23.90000	128
23.90833	128
23.91667	129
23.92500	129
23.93333	129
23.94167	130
23.95000	131
23.95833	131
23.96667	131
23.97500	131
23.98333	131
23.99167	132
24.00000	132
24.00833	132
24.01667	133
24.02500	133
24.03333	134
24.04167	134
24.05000	135
24.05833	135
24.06667	135
24.07500	135
24.08333	135
24.09167	135
24.10000	136
24.10833	136
24.11667	135
24.12500	134
24.13333	134
24.14167	133
24.15000	132
24.15833	131
24.16667	131
24.17500	130
24.18333	129
24.19167	128
24.20000	127
24.20833	126
24.21667	125
24.22500	125
24.23333	124
24.24167	123
24.25000	122
24.25833	121
24.26667	119
24.27500	117
24.28333	116
24.29167	114
24.30000	113
24.30833	111
24.31667	109
24.32500	108
24.33333	106
24.34167	105
24.35000	103
24.35833	102
24.36667	101
24.37500	99
24.38333	98
24.39167	96
24.40000	95
24.40833	93
24.41667	92
24.42500	90
24.43333	89
24.44167	88
24.45000	88
24.45833	87
24.46667	87
24.47500	86
24.48333	85
24.49167	84
24.50000	83
24.50833	83
24.51667	82
24.52500	81
24.53333	81
24.54167	80
24.55000	80
24.55833	81
24.56667	81
24.57500	82
24.58333	82
24.59167	83
24.60000	83
24.60833	84
24.61667	84
24.62500	85
24.63333	86
24.64167	86
24.65000	87
24.65833	88
24.66667	89
24.67500	89
24.68333	90
24.69167	91
24.70000	92
24.70833	93
24.71667	93
24.72500	94
24.73333	95
24.74167	96
24.75000	97
24.75833	97
24.76667	98
24.77500	98
24.78333	99
24.79167	100
24.80000	101
24.80833	102
24.81667	103
24.82500	103
24.83333	103
24.84167	104
24.85000	104
24.85833	105
24.86667	105
24.87500	106
24.88333	106
24.89167	107
24.90000	107
24.90833	108
24.91667	108
24.92500	108
24.93333	108
24.94167	109
24.95000	109
24.95833	110
24.96667	110
24.97500	110
24.98333	110
24.99167	110
25.00000	111
25.00833	111
25.01667	112
25.02500	112
25.03333	112
25.04167	113
25.05000	113
25.05833	113
25.06667	113
25.07500	113
25.08333	113
25.09167	113
25.10000	113
25.10833	113
25.11667	114
25.12500	114
25.13333	115
25.14167	115
25.15000	115
25.15833	115
25.16667	115
25.17500	115
25.18333	115
25.19167	116
25.20000	116
25.20833	117
25.21667	117
25.22500	118
25.23333	118
25.24167	119
25.25000	119
25.25833	120
25.26667	120
25.27500	120
25.28333	120
25.29167	121
25.30000	121
25.30833	122
25.31667	122
25.32500	123
25.33333	124
25.34167	125
25.35000	126
25.35833	126
25.36667	126
25.37500	127
25.38333	128
25.39167	128
25.40000	129
25.40833	130
25.41667	130
25.42500	131
25.43333	132
25.44167	132
25.45000	133
25.45833	134
25.46667	135
25.47500	136
25.48333	136
25.49167	137
25.50000	138
25.50833	139
25.51667	140
25.52500	141
25.53333	142
25.54167	143
25.55000	144
25.55833	145
25.56667	146
25.57500	148
25.58333	148
25.59167	149
25.60000	150
25.60833	151
25.61667	152
25.62500	153
25.63333	155
25.64167	156
25.65000	158
25.65833	159
25.66667	160
25.67500	161
25.68333	162
25.69167	163
25.70000	165
25.70833	166
25.71667	166
25.72500	167
25.73333	168
25.74167	169
25.75000	171
25.75833	172
25.76667	174
25.77500	175
25.78333	176
25.79167	177
25.80000	178
25.80833	179
25.81667	181
25.82500	182
25.83333	184
25.84167	186
25.85000	188
25.85833	190
25.86667	193
25.87500	195
25.88333	197
25.89167	199
25.90000	201
25.90833	204
25.91667	207
25.92500	210
25.93333	213
25.94167	216
25.95000	219
25.95833	223
25.96667	226
25.97500	230
25.98333	234
25.99167	239
26.00000	244
26.00833	249
26.01667	254
26.02500	260
26.03333	266
26.04167	273
26.05000	280
26.05833	287
26.06667	295
26.07500	303
26.08333	311
26.09167	320
26.10000	330
26.10833	340
26.11667	351
26.12500	362
26.13333	374
26.14167	387
26.15000	401
26.15833	415
26.16667	430
26.17500	446
26.18333	463
26.19167	480
26.20000	499
26.20833	519
26.21667	540
26.22500	561
26.23333	584
26.24167	608
26.25000	633
26.25833	659
26.26667	686
26.27500	713
26.28333	742
26.29167	772
26.30000	803
26.30833	834
26.31667	866
26.32500	900
26.33333	933
26.34167	967
26.35000	1002
26.35833	1037
26.36667	1072
26.37500	1107
26.38333	1143
26.39167	1178
26.40000	1212
26.40833	1247
26.41667	1280
26.42500	1313
26.43333	1344
26.44167	1375
26.45000	1404
26.45833	1432
26.46667	1458
26.47500	1483
26.48333	1505
26.49167	1526
26.50000	1544
26.50833	1560
26.51667	1575
26.52500	1586
26.53333	1595
26.54167	1601
26.55000	1605
26.55833	1605
26.56667	1603
26.57500	1599
26.58333	1593
26.59167	1583
26.60000	1572
26.60833	1558
26.61667	1541
26.62500	1523
26.63333	1502
26.64167	1479
26.65000	1455
26.65833	1429
26.66667	1401
26.67500	1372
26.68333	1342
26.69167	1310
26.70000	1278
26.70833	1245
26.71667	1211
26.72500	1177
26.73333	1143
26.74167	1108
26.75000	1074
26.75833	1039
26.76667	1005
26.77500	971
26.78333	937
26.79167	904
26.80000	871
26.80833	839
26.81667	808
26.82500	778
26.83333	749
26.84167	721
26.85000	694
26.85833	667
26.86667	642
26.87500	617
26.88333	594
26.89167	571
26.90000	549
26.90833	529
26.91667	509
26.92500	491
26.93333	473
26.94167	456
26.95000	440
26.95833	425
26.96667	411
26.97500	397
26.98333	384
26.99167	372
27.00000	360
27.00833	349
27.01667	339
27.02500	329
27.03333	320
27.04167	311
27.05000	302
27.05833	294
27.06667	285
27.07500	278
27.08333	271
27.09167	264
27.10000	258
27.10833	252
27.11667	246
27.12500	240
27.13333	235
27.14167	231
27.15000	226
27.15833	222
27.16667	218
27.17500	214
27.18333	210
27.19167	206
27.20000	203
27.20833	200
27.21667	197
27.22500	194
27.23333	191
27.24167	188
27.25000	185
27.25833	182
27.26667	179
27.27500	177
27.28333	174
27.29167	172
27.30000	170
27.30833	168
27.31667	167
27.32500	165
27.33333	164
27.34167	163
27.35000	162
27.35833	160
27.36667	159
27.37500	158
27.38333	156
27.39167	155
27.40000	154
27.40833	153
27.41667	152
27.42500	151
27.43333	150
27.44167	149
27.45000	148
27.45833	147
27.46667	146
27.47500	145
27.48333	145
27.49167	144
27.50000	143
27.50833	142
27.51667	142
27.52500	141
27.53333	141
27.54167	140
27.55000	139
27.55833	139
27.56667	138
27.57500	137
27.58333	137
27.59167	136
27.60000	135
27.60833	134
27.61667	134
27.62500	133
27.63333	132
27.64167	132
27.65000	132
27.65833	132
27.66667	131
27.67500	131
27.68333	131
27.69167	131
27.70000	130
27.70833	130
27.71667	130
27.72500	129
27.73333	129
27.74167	129
27.75000	129
27.75833	129
27.76667	128
27.77500	128
27.78333	128
27.79167	128
27.80000	128
27.80833	128
27.81667	128
27.82500	128
27.83333	129
27.84167	129
27.85000	129
27.85833	129
27.86667	129
27.87500	129
27.88333	130
27.89167	130
27.90000	131
27.90833	131
27.91667	132
27.92500	132
27.93333	133
27.94167	133
27.95000	133
27.95833	133
27.96667	134
27.97500	135
27.98333	135
27.99167	135
28.00000	136

