R.Time (min)	Intensity
0.00000	-6
0.00833	-6
0.01667	0
0.02500	1
0.03333	1
0.04167	0
0.05000	-0
0.05833	-1
0.06667	-1
0.07500	-1
0.08333	-2
0.09167	-1
0.10000	-1
0.10833	-0
0.11667	-0
0.12500	0
0.13333	0
0.14167	0
0.15000	-0
0.15833	-0
0.16667	-1
0.17500	-1
0.18333	-1
0.19167	-2
0.20000	-2
0.20833	-2
0.21667	-3
0.22500	-3
0.23333	-3
0.24167	-3
0.25000	-3
0.25833	-3
0.26667	-3
0.27500	-4
0.28333	-4
0.29167	-4
0.30000	-4
0.30833	-4
0.31667	-5
0.32500	-5
0.33333	-5
0.34167	-4
0.35000	-5
0.35833	-5
0.36667	-5
0.37500	-6
0.38333	-6
0.39167	-6
0.40000	-6
0.40833	-7
0.41667	-7
0.42500	-7
0.43333	-7
0.44167	-7
0.45000	-7
0.45833	-8
0.46667	-8
0.47500	-8
0.48333	-8
0.49167	-8
0.50000	-8
0.50833	-9
0.51667	-9
0.52500	-9
0.53333	-9
0.54167	-9
0.55000	-9
0.55833	-9
0.56667	-9
0.57500	-9
0.58333	-9
0.59167	-9
0.60000	-9
0.60833	-9
0.61667	-9
0.62500	-9
0.63333	-9
0.64167	-9
0.65000	-9
0.65833	-9
0.66667	-9
0.67500	-9
0.68333	-9
0.69167	-9
0.70000	-8
0.70833	-8
0.71667	-8
0.72500	-9
0.73333	-9
0.74167	-9
0.75000	-9
0.75833	-9
0.76667	-9
0.77500	-10
0.78333	-10
0.79167	-10
0.80000	-10
0.80833	-10
0.81667	-10
0.82500	-10
0.83333	-11
0.84167	-11
0.85000	-11
0.85833	-11
0.86667	-11
0.87500	-10
0.88333	-10
0.89167	-10
0.90000	-10
0.90833	-11
0.91667	-11
0.92500	-11
0.93333	-12
0.94167	-12
0.95000	-12
0.95833	-12
0.96667	-12
0.97500	-12
0.98333	-12
0.99167	-13
1.00000	-13
1.00833	-13
1.01667	-14
1.02500	-14
1.03333	-14
1.04167	-14
1.05000	-13
1.05833	-13
1.06667	-13
1.07500	-13
1.08333	-13
1.09167	-13
1.10000	-13
1.10833	-13
1.11667	-13
1.12500	-14
1.13333	-14
1.14167	-14
1.15000	-14
1.15833	-14
1.16667	-14
1.17500	-14
1.18333	-14
1.19167	-15
1.20000	-14
1.20833	-14
1.21667	-14
1.22500	-13
1.23333	-13
1.24167	-13
1.25000	-13
1.25833	-13
1.26667	-13
1.27500	-12
1.28333	-12
1.29167	-12
1.30000	-12
1.30833	-12
1.31667	-12
1.32500	-12
1.33333	-11
1.34167	-11
1.35000	-11
1.35833	-11
1.36667	-11
1.37500	-11
1.38333	-11
1.39167	-10
1.40000	-10
1.40833	-10
1.41667	-10
1.42500	-10
1.43333	-10
1.44167	-10
1.45000	-10
1.45833	-10
1.46667	-9
1.47500	-9
1.48333	-9
1.49167	-9
1.50000	-9
1.50833	-9
1.51667	-9
1.52500	-9
1.53333	-8
1.54167	-8
1.55000	-8
1.55833	-8
1.56667	-8
1.57500	-8
1.58333	-8
1.59167	-8
1.60000	-7
1.60833	-7
1.61667	-7
1.62500	-8
1.63333	-8
1.64167	-8
1.65000	-8
1.65833	-8
1.66667	-9
1.67500	-8
1.68333	-8
1.69167	-8
1.70000	-8
1.70833	-8
1.71667	-8
1.72500	-8
1.73333	-8
1.74167	-8
1.75000	-8
1.75833	-8
1.76667	-8
1.77500	-8
1.78333	-8
1.79167	-9
1.80000	-9
1.80833	-8
1.81667	-8
1.82500	-8
1.83333	-8
1.84167	-8
1.85000	-7
1.85833	-7
1.86667	-7
1.87500	-7
1.88333	-7
1.89167	-7
1.90000	-6
1.90833	-6
1.91667	-6
1.92500	-6
1.93333	-6
1.94167	-6
1.95000	-6
1.95833	-6
1.96667	-6
1.97500	-5
1.98333	-5
1.99167	-5
2.00000	-4
2.00833	-4
2.01667	-4
2.02500	-4
2.03333	-4
2.04167	-3
2.05000	-3
2.05833	-2
2.06667	-2
2.07500	-1
2.08333	-1
2.09167	-0
2.10000	0
2.10833	1
2.11667	2
2.12500	3
2.13333	3
2.14167	4
2.15000	5
2.15833	5
2.16667	6
2.17500	6
2.18333	7
2.19167	8
2.20000	9
2.20833	10
2.21667	11
2.22500	12
2.23333	14
2.24167	15
2.25000	16
2.25833	17
2.26667	18
2.27500	20
2.28333	21
2.29167	22
2.30000	24
2.30833	26
2.31667	29
2.32500	31
2.33333	33
2.34167	36
2.35000	39
2.35833	41
2.36667	44
2.37500	47
2.38333	50
2.39167	53
2.40000	57
2.40833	62
2.41667	66
2.42500	70
2.43333	75
2.44167	80
2.45000	85
2.45833	91
2.46667	97
2.47500	103
2.48333	110
2.49167	117
2.50000	124
2.50833	132
2.51667	141
2.52500	150
2.53333	159
2.54167	169
2.55000	180
2.55833	191
2.56667	203
2.57500	215
2.58333	228
2.59167	241
2.60000	255
2.60833	270
2.61667	286
2.62500	303
2.63333	321
2.64167	339
2.65000	359
2.65833	380
2.66667	402
2.67500	425
2.68333	450
2.69167	475
2.70000	502
2.70833	530
2.71667	559
2.72500	590
2.73333	622
2.74167	656
2.75000	692
2.75833	730
2.76667	770
2.77500	812
2.78333	856
2.79167	903
2.80000	952
2.80833	1004
2.81667	1058
2.82500	1115
2.83333	1175
2.84167	1238
2.85000	1305
2.85833	1375
2.86667	1448
2.87500	1525
2.88333	1606
2.89167	1691
2.90000	1779
2.90833	1872
2.91667	1970
2.92500	2072
2.93333	2179
2.94167	2291
2.95000	2407
2.95833	2529
2.96667	2655
2.97500	2787
2.98333	2924
2.99167	3066
3.00000	3213
3.00833	3366
3.01667	3524
3.02500	3687
3.03333	3855
3.04167	4027
3.05000	4205
3.05833	4387
3.06667	4573
3.07500	4763
3.08333	4957
3.09167	5154
3.10000	5353
3.10833	5555
3.11667	5759
3.12500	5964
3.13333	6170
3.14167	6375
3.15000	6581
3.15833	6786
3.16667	6989
3.17500	7190
3.18333	7389
3.19167	7583
3.20000	7772
3.20833	7957
3.21667	8135
3.22500	8307
3.23333	8472
3.24167	8629
3.25000	8777
3.25833	8916
3.26667	9045
3.27500	9164
3.28333	9272
3.29167	9370
3.30000	9455
3.30833	9529
3.31667	9590
3.32500	9639
3.33333	9675
3.34167	9698
3.35000	9707
3.35833	9704
3.36667	9688
3.37500	9659
3.38333	9618
3.39167	9564
3.40000	9498
3.40833	9420
3.41667	9331
3.42500	9230
3.43333	9119
3.44167	8997
3.45000	8866
3.45833	8726
3.46667	8578
3.47500	8421
3.48333	8258
3.49167	8087
3.50000	7910
3.50833	7727
3.51667	7541
3.52500	7350
3.53333	7156
3.54167	6959
3.55000	6760
3.55833	6559
3.56667	6356
3.57500	6154
3.58333	5951
3.59167	5749
3.60000	5547
3.60833	5348
3.61667	5150
3.62500	4956
3.63333	4764
3.64167	4576
3.65000	4391
3.65833	4209
3.66667	4032
3.67500	3859
3.68333	3690
3.69167	3525
3.70000	3366
3.70833	3211
3.71667	3061
3.72500	2916
3.73333	2776
3.74167	2641
3.75000	2512
3.75833	2388
3.76667	2269
3.77500	2155
3.78333	2045
3.79167	1941
3.80000	1841
3.80833	1745
3.81667	1654
3.82500	1568
3.83333	1486
3.84167	1408
3.85000	1334
3.85833	1264
3.86667	1198
3.87500	1136
3.88333	1077
3.89167	1021
3.90000	968
3.90833	918
3.91667	871
3.92500	827
3.93333	786
3.94167	747
3.95000	710
3.95833	675
3.96667	643
3.97500	612
3.98333	584
3.99167	557
4.00000	532
4.00833	508
4.01667	486
4.02500	465
4.03333	446
4.04167	428
4.05000	410
4.05833	394
4.06667	379
4.07500	364
4.08333	350
4.09167	337
4.10000	325
4.10833	313
4.11667	301
4.12500	290
4.13333	280
4.14167	270
4.15000	261
4.15833	253
4.16667	244
4.17500	236
4.18333	228
4.19167	220
4.20000	213
4.20833	205
4.21667	198
4.22500	192
4.23333	185
4.24167	179
4.25000	173
4.25833	167
4.26667	161
4.27500	156
4.28333	150
4.29167	145
4.30000	140
4.30833	135
4.31667	130
4.32500	125
4.33333	120
4.34167	115
4.35000	110
4.35833	106
4.36667	102
4.37500	98
4.38333	94
4.39167	90
4.40000	87
4.40833	83
4.41667	80
4.42500	76
4.43333	73
4.44167	70
4.45000	67
4.45833	64
4.46667	62
4.47500	59
4.48333	56
4.49167	54
4.50000	51
4.50833	49
4.51667	47
4.52500	45
4.53333	43
4.54167	41
4.55000	40
4.55833	38
4.56667	37
4.57500	36
4.58333	35
4.59167	34
4.60000	32
4.60833	31
4.61667	30
4.62500	29
4.63333	29
4.64167	28
4.65000	27
4.65833	26
4.66667	25
4.67500	25
4.68333	24
4.69167	25
4.70000	25
4.70833	25
4.71667	25
4.72500	25
4.73333	25
4.74167	24
4.75000	24
4.75833	24
4.76667	24
4.77500	23
4.78333	23
4.79167	23
4.80000	23
4.80833	24
4.81667	24
4.82500	25
4.83333	25
4.84167	26
4.85000	26
4.85833	27
4.86667	27
4.87500	27
4.88333	27
4.89167	27
4.90000	28
4.90833	28
4.91667	29
4.92500	29
4.93333	30
4.94167	30
4.95000	31
4.95833	31
4.96667	32
4.97500	32
4.98333	32
4.99167	32
5.00000	32
5.00833	32
5.01667	32
5.02500	32
5.03333	32
5.04167	33
5.05000	33
5.05833	33
5.06667	34
5.07500	34
5.08333	34
5.09167	35
5.10000	35
5.10833	35
5.11667	35
5.12500	36
5.13333	36
5.14167	36
5.15000	35
5.15833	35
5.16667	35
5.17500	34
5.18333	34
5.19167	34
5.20000	33
5.20833	33
5.21667	33
5.22500	33
5.23333	33
5.24167	33
5.25000	33
5.25833	33
5.26667	33
5.27500	33
5.28333	33
5.29167	33
5.30000	33
5.30833	33
5.31667	33
5.32500	33
5.33333	32
5.34167	31
5.35000	31
5.35833	30
5.36667	30
5.37500	30
5.38333	29
5.39167	29
5.40000	28
5.40833	28
5.41667	28
5.42500	27
5.43333	27
5.44167	27
5.45000	27
5.45833	26
5.46667	26
5.47500	26
5.48333	25
5.49167	25
5.50000	25
5.50833	24
5.51667	24
5.52500	24
5.53333	23
5.54167	23
5.55000	23
5.55833	22
5.56667	22
5.57500	22
5.58333	21
5.59167	21
5.60000	21
5.60833	21
5.61667	21
5.62500	21
5.63333	21
5.64167	20
5.65000	20
5.65833	20
5.66667	19
5.67500	19
5.68333	19
5.69167	19
5.70000	19
5.70833	18
5.71667	18
5.72500	18
5.73333	17
5.74167	17
5.75000	17
5.75833	17
5.76667	17
5.77500	16
5.78333	16
5.79167	15
5.80000	15
5.80833	15
5.81667	15
5.82500	15
5.83333	14
5.84167	14
5.85000	13
5.85833	13
5.86667	13
5.87500	13
5.88333	13
5.89167	13
5.90000	12
5.90833	12
5.91667	12
5.92500	12
5.93333	12
5.94167	11
5.95000	11
5.95833	10
5.96667	10
5.97500	10
5.98333	10
5.99167	10
6.00000	9
6.00833	9
6.01667	9
6.02500	9
6.03333	8
6.04167	8
6.05000	8
6.05833	8
6.06667	8
6.07500	8
6.08333	8
6.09167	8
6.10000	8
6.10833	9
6.11667	9
6.12500	9
6.13333	9
6.14167	10
6.15000	10
6.15833	9
6.16667	9
6.17500	10
6.18333	10
6.19167	10
6.20000	11
6.20833	11
6.21667	11
6.22500	11
6.23333	11
6.24167	11
6.25000	12
6.25833	12
6.26667	13
6.27500	13
6.28333	13
6.29167	14
6.30000	14
6.30833	14
6.31667	15
6.32500	15
6.33333	15
6.34167	15
6.35000	15
6.35833	15
6.36667	15
6.37500	15
6.38333	15
6.39167	15
6.40000	16
6.40833	16
6.41667	16
6.42500	16
6.43333	16
6.44167	15
6.45000	15
6.45833	15
6.46667	15
6.47500	15
6.48333	15
6.49167	15
6.50000	15
6.50833	15
6.51667	15
6.52500	15
6.53333	15
6.54167	15
6.55000	15
6.55833	15
6.56667	15
6.57500	15
6.58333	15
6.59167	14
6.60000	14
6.60833	14
6.61667	13
6.62500	13
6.63333	12
6.64167	12
6.65000	11
6.65833	11
6.66667	10
6.67500	10
6.68333	10
6.69167	10
6.70000	10
6.70833	10
6.71667	10
6.72500	10
6.73333	10
6.74167	11
6.75000	11
6.75833	11
6.76667	11
6.77500	11
6.78333	10
6.79167	10
6.80000	9
6.80833	9
6.81667	9
6.82500	10
6.83333	10
6.84167	10
6.85000	10
6.85833	10
6.86667	10
6.87500	11
6.88333	11
6.89167	12
6.90000	12
6.90833	13
6.91667	13
6.92500	14
6.93333	14
6.94167	15
6.95000	15
6.95833	15
6.96667	16
6.97500	16
6.98333	17
6.99167	17
7.00000	17
7.00833	17
7.01667	17
7.02500	17
7.03333	18
7.04167	18
7.05000	19
7.05833	20
7.06667	21
7.07500	22
7.08333	24
7.09167	27
7.10000	30
7.10833	34
7.11667	38
7.12500	45
7.13333	52
7.14167	61
7.15000	72
7.15833	85
7.16667	100
7.17500	117
7.18333	136
7.19167	158
7.20000	182
7.20833	207
7.21667	235
7.22500	264
7.23333	294
7.24167	326
7.25000	357
7.25833	388
7.26667	416
7.27500	439
7.28333	457
7.29167	467
7.30000	467
7.30833	455
7.31667	433
7.32500	400
7.33333	360
7.34167	320
7.35000	290
7.35833	281
7.36667	311
7.37500	396
7.38333	558
7.39167	816
7.40000	1192
7.40833	1704
7.41667	2367
7.42500	3192
7.43333	4183
7.44167	5339
7.45000	6651
7.45833	8100
7.46667	9658
7.47500	11287
7.48333	12939
7.49167	14558
7.50000	16081
7.50833	17443
7.51667	18582
7.52500	19443
7.53333	19984
7.54167	20184
7.55000	20040
7.55833	19568
7.56667	18806
7.57500	17804
7.58333	16619
7.59167	15315
7.60000	13950
7.60833	12579
7.61667	11244
7.62500	9982
7.63333	8817
7.64167	7761
7.65000	6821
7.65833	5996
7.66667	5281
7.67500	4668
7.68333	4144
7.69167	3700
7.70000	3323
7.70833	3004
7.71667	2732
7.72500	2500
7.73333	2301
7.74167	2129
7.75000	1979
7.75833	1846
7.76667	1729
7.77500	1624
7.78333	1529
7.79167	1443
7.80000	1364
7.80833	1291
7.81667	1224
7.82500	1161
7.83333	1101
7.84167	1046
7.85000	992
7.85833	942
7.86667	894
7.87500	848
7.88333	804
7.89167	763
7.90000	724
7.90833	686
7.91667	652
7.92500	620
7.93333	590
7.94167	563
7.95000	539
7.95833	518
7.96667	499
7.97500	483
7.98333	469
7.99167	458
8.00000	449
8.00833	441
8.01667	435
8.02500	430
8.03333	425
8.04167	421
8.05000	416
8.05833	411
8.06667	405
8.07500	400
8.08333	393
8.09167	386
8.10000	379
8.10833	371
8.11667	363
8.12500	355
8.13333	346
8.14167	338
8.15000	329
8.15833	320
8.16667	312
8.17500	304
8.18333	296
8.19167	289
8.20000	282
8.20833	276
8.21667	270
8.22500	264
8.23333	259
8.24167	255
8.25000	251
8.25833	248
8.26667	245
8.27500	242
8.28333	240
8.29167	238
8.30000	237
8.30833	236
8.31667	235
8.32500	234
8.33333	233
8.34167	232
8.35000	232
8.35833	231
8.36667	231
8.37500	230
8.38333	230
8.39167	229
8.40000	229
8.40833	228
8.41667	227
8.42500	227
8.43333	226
8.44167	224
8.45000	223
8.45833	222
8.46667	221
8.47500	219
8.48333	218
8.49167	216
8.50000	214
8.50833	213
8.51667	211
8.52500	209
8.53333	208
8.54167	206
8.55000	204
8.55833	203
8.56667	202
8.57500	201
8.58333	200
8.59167	200
8.60000	200
8.60833	201
8.61667	202
8.62500	204
8.63333	207
8.64167	211
8.65000	216
8.65833	221
8.66667	227
8.67500	235
8.68333	243
8.69167	252
8.70000	261
8.70833	271
8.71667	281
8.72500	292
8.73333	303
8.74167	313
8.75000	323
8.75833	332
8.76667	341
8.77500	349
8.78333	357
8.79167	363
8.80000	368
8.80833	373
8.81667	378
8.82500	382
8.83333	387
8.84167	393
8.85000	399
8.85833	408
8.86667	419
8.87500	433
8.88333	452
8.89167	475
8.90000	504
8.90833	539
8.91667	582
8.92500	633
8.93333	694
8.94167	764
8.95000	845
8.95833	935
8.96667	1034
8.97500	1142
8.98333	1257
8.99167	1377
9.00000	1503
9.00833	1630
9.01667	1756
9.02500	1880
9.03333	1998
9.04167	2108
9.05000	2208
9.05833	2295
9.06667	2367
9.07500	2423
9.08333	2463
9.09167	2485
9.10000	2490
9.10833	2477
9.11667	2448
9.12500	2404
9.13333	2346
9.14167	2276
9.15000	2196
9.15833	2108
9.16667	2013
9.17500	1914
9.18333	1811
9.19167	1709
9.20000	1607
9.20833	1508
9.21667	1411
9.22500	1319
9.23333	1232
9.24167	1150
9.25000	1073
9.25833	1003
9.26667	938
9.27500	879
9.28333	826
9.29167	779
9.30000	737
9.30833	699
9.31667	667
9.32500	638
9.33333	614
9.34167	594
9.35000	577
9.35833	564
9.36667	555
9.37500	549
9.38333	548
9.39167	550
9.40000	558
9.40833	570
9.41667	590
9.42500	617
9.43333	653
9.44167	700
9.45000	759
9.45833	834
9.46667	929
9.47500	1047
9.48333	1192
9.49167	1368
9.50000	1582
9.50833	1838
9.51667	2142
9.52500	2499
9.53333	2913
9.54167	3390
9.55000	3933
9.55833	4543
9.56667	5221
9.57500	5966
9.58333	6774
9.59167	7641
9.60000	8559
9.60833	9517
9.61667	10504
9.62500	11506
9.63333	12510
9.64167	13499
9.65000	14457
9.65833	15369
9.66667	16221
9.67500	16998
9.68333	17689
9.69167	18284
9.70000	18776
9.70833	19161
9.71667	19438
9.72500	19608
9.73333	19676
9.74167	19649
9.75000	19534
9.75833	19344
9.76667	19090
9.77500	18783
9.78333	18438
9.79167	18067
9.80000	17683
9.80833	17299
9.81667	16925
9.82500	16571
9.83333	16245
9.84167	15955
9.85000	15707
9.85833	15506
9.86667	15354
9.87500	15255
9.88333	15209
9.89167	15217
9.90000	15279
9.90833	15392
9.91667	15555
9.92500	15766
9.93333	16022
9.94167	16320
9.95000	16657
9.95833	17030
9.96667	17436
9.97500	17871
9.98333	18333
9.99167	18818
10.00000	19322
10.00833	19842
10.01667	20375
10.02500	20917
10.03333	21462
10.04167	22001
10.05000	22526
10.05833	23018
10.06667	23457
10.07500	23811
10.08333	24045
10.09167	24120
10.10000	23996
10.10833	23642
10.11667	23038
10.12500	22180
10.13333	21085
10.14167	19785
10.15000	18328
10.15833	16770
10.16667	15168
10.17500	13576
10.18333	12041
10.19167	10597
10.20000	9270
10.20833	8072
10.21667	7010
10.22500	6079
10.23333	5275
10.24167	4585
10.25000	3999
10.25833	3503
10.26667	3085
10.27500	2733
10.28333	2436
10.29167	2187
10.30000	1975
10.30833	1796
10.31667	1643
10.32500	1511
10.33333	1397
10.34167	1298
10.35000	1210
10.35833	1132
10.36667	1063
10.37500	999
10.38333	942
10.39167	889
10.40000	840
10.40833	795
10.41667	754
10.42500	715
10.43333	679
10.44167	646
10.45000	616
10.45833	589
10.46667	564
10.47500	541
10.48333	521
10.49167	503
10.50000	488
10.50833	474
10.51667	463
10.52500	454
10.53333	446
10.54167	441
10.55000	436
10.55833	433
10.56667	430
10.57500	428
10.58333	426
10.59167	424
10.60000	423
10.60833	421
10.61667	418
10.62500	415
10.63333	411
10.64167	405
10.65000	399
10.65833	392
10.66667	383
10.67500	374
10.68333	364
10.69167	354
10.70000	342
10.70833	331
10.71667	319
10.72500	308
10.73333	296
10.74167	285
10.75000	274
10.75833	263
10.76667	253
10.77500	244
10.78333	234
10.79167	226
10.80000	218
10.80833	212
10.81667	205
10.82500	200
10.83333	195
10.84167	190
10.85000	186
10.85833	184
10.86667	181
10.87500	178
10.88333	176
10.89167	175
10.90000	173
10.90833	172
10.91667	170
10.92500	170
10.93333	169
10.94167	168
10.95000	167
10.95833	165
10.96667	164
10.97500	163
10.98333	161
10.99167	160
11.00000	158
11.00833	156
11.01667	155
11.02500	153
11.03333	151
11.04167	149
11.05000	148
11.05833	147
11.06667	146
11.07500	145
11.08333	145
11.09167	144
11.10000	144
11.10833	145
11.11667	147
11.12500	148
11.13333	150
11.14167	152
11.15000	154
11.15833	156
11.16667	159
11.17500	162
11.18333	165
11.19167	168
11.20000	171
11.20833	174
11.21667	178
11.22500	181
11.23333	185
11.24167	188
11.25000	192
11.25833	196
11.26667	200
11.27500	204
11.28333	207
11.29167	211
11.30000	215
11.30833	219
11.31667	222
11.32500	224
11.33333	226
11.34167	227
11.35000	228
11.35833	228
11.36667	228
11.37500	227
11.38333	226
11.39167	224
11.40000	221
11.40833	218
11.41667	215
11.42500	212
11.43333	208
11.44167	204
11.45000	201
11.45833	197
11.46667	193
11.47500	189
11.48333	185
11.49167	182
11.50000	178
11.50833	175
11.51667	171
11.52500	168
11.53333	165
11.54167	162
11.55000	160
11.55833	157
11.56667	154
11.57500	151
11.58333	149
11.59167	146
11.60000	144
11.60833	142
11.61667	141
11.62500	139
11.63333	138
11.64167	137
11.65000	137
11.65833	137
11.66667	136
11.67500	137
11.68333	137
11.69167	137
11.70000	137
11.70833	137
11.71667	137
11.72500	137
11.73333	137
11.74167	137
11.75000	137
11.75833	136
11.76667	136
11.77500	136
11.78333	135
11.79167	135
11.80000	134
11.80833	133
11.81667	132
11.82500	131
11.83333	130
11.84167	129
11.85000	128
11.85833	127
11.86667	125
11.87500	124
11.88333	123
11.89167	122
11.90000	120
11.90833	118
11.91667	116
11.92500	115
11.93333	113
11.94167	112
11.95000	110
11.95833	108
11.96667	107
11.97500	106
11.98333	105
11.99167	105
12.00000	105
12.00833	105
12.01667	105
12.02500	106
12.03333	107
12.04167	108
12.05000	109
12.05833	110
12.06667	112
12.07500	113
12.08333	115
12.09167	117
12.10000	119
12.10833	120
12.11667	121
12.12500	123
12.13333	124
12.14167	125
12.15000	125
12.15833	125
12.16667	125
12.17500	126
12.18333	126
12.19167	126
12.20000	126
12.20833	126
12.21667	126
12.22500	126
12.23333	126
12.24167	125
12.25000	125
12.25833	125
12.26667	124
12.27500	123
12.28333	122
12.29167	121
12.30000	120
12.30833	119
12.31667	117
12.32500	116
12.33333	114
12.34167	112
12.35000	110
12.35833	108
12.36667	106
12.37500	104
12.38333	101
12.39167	99
12.40000	97
12.40833	95
12.41667	93
12.42500	91
12.43333	90
12.44167	89
12.45000	87
12.45833	86
12.46667	86
12.47500	85
12.48333	83
12.49167	82
12.50000	81
12.50833	80
12.51667	79
12.52500	78
12.53333	77
12.54167	76
12.55000	75
12.55833	74
12.56667	74
12.57500	74
12.58333	74
12.59167	74
12.60000	74
12.60833	75
12.61667	75
12.62500	76
12.63333	77
12.64167	78
12.65000	79
12.65833	79
12.66667	80
12.67500	81
12.68333	81
12.69167	82
12.70000	82
12.70833	82
12.71667	83
12.72500	83
12.73333	84
12.74167	84
12.75000	85
12.75833	86
12.76667	87
12.77500	87
12.78333	88
12.79167	89
12.80000	90
12.80833	91
12.81667	92
12.82500	93
12.83333	95
12.84167	96
12.85000	97
12.85833	99
12.86667	100
12.87500	102
12.88333	103
12.89167	105
12.90000	106
12.90833	108
12.91667	110
12.92500	112
12.93333	115
12.94167	117
12.95000	120
12.95833	122
12.96667	125
12.97500	128
12.98333	131
12.99167	135
13.00000	138
13.00833	141
13.01667	144
13.02500	147
13.03333	150
13.04167	153
13.05000	155
13.05833	157
13.06667	158
13.07500	159
13.08333	160
13.09167	161
13.10000	161
13.10833	161
13.11667	160
13.12500	159
13.13333	158
13.14167	157
13.15000	155
13.15833	153
13.16667	151
13.17500	148
13.18333	146
13.19167	144
13.20000	142
13.20833	140
13.21667	138
13.22500	137
13.23333	135
13.24167	134
13.25000	133
13.25833	132
13.26667	131
13.27500	131
13.28333	130
13.29167	129
13.30000	129
13.30833	129
13.31667	129
13.32500	129
13.33333	129
13.34167	129
13.35000	129
13.35833	129
13.36667	130
13.37500	131
13.38333	131
13.39167	131
13.40000	131
13.40833	132
13.41667	132
13.42500	133
13.43333	133
13.44167	134
13.45000	135
13.45833	137
13.46667	138
13.47500	140
13.48333	141
13.49167	143
13.50000	145
13.50833	147
13.51667	150
13.52500	152
13.53333	155
13.54167	158
13.55000	162
13.55833	165
13.56667	169
13.57500	174
13.58333	179
13.59167	185
13.60000	192
13.60833	199
13.61667	207
13.62500	216
13.63333	225
13.64167	235
13.65000	245
13.65833	255
13.66667	266
13.67500	278
13.68333	290
13.69167	302
13.70000	314
13.70833	325
13.71667	336
13.72500	347
13.73333	357
13.74167	366
13.75000	374
13.75833	382
13.76667	388
13.77500	394
13.78333	399
13.79167	404
13.80000	408
13.80833	411
13.81667	415
13.82500	418
13.83333	421
13.84167	425
13.85000	429
13.85833	433
13.86667	437
13.87500	442
13.88333	447
13.89167	453
13.90000	458
13.90833	464
13.91667	470
13.92500	475
13.93333	480
13.94167	485
13.95000	489
13.95833	492
13.96667	494
13.97500	496
13.98333	497
13.99167	496
14.00000	495
14.00833	492
14.01667	488
14.02500	483
14.03333	477
14.04167	470
14.05000	463
14.05833	455
14.06667	446
14.07500	436
14.08333	426
14.09167	416
14.10000	406
14.10833	396
14.11667	386
14.12500	377
14.13333	368
14.14167	359
14.15000	351
14.15833	344
14.16667	337
14.17500	330
14.18333	325
14.19167	319
14.20000	314
14.20833	310
14.21667	306
14.22500	303
14.23333	299
14.24167	297
14.25000	294
14.25833	292
14.26667	291
14.27500	289
14.28333	289
14.29167	288
14.30000	287
14.30833	287
14.31667	287
14.32500	287
14.33333	287
14.34167	287
14.35000	287
14.35833	288
14.36667	289
14.37500	290
14.38333	291
14.39167	293
14.40000	294
14.40833	296
14.41667	297
14.42500	299
14.43333	301
14.44167	302
14.45000	304
14.45833	305
14.46667	307
14.47500	308
14.48333	309
14.49167	310
14.50000	311
14.50833	312
14.51667	313
14.52500	313
14.53333	314
14.54167	315
14.55000	315
14.55833	315
14.56667	315
14.57500	315
14.58333	314
14.59167	313
14.60000	312
14.60833	311
14.61667	310
14.62500	309
14.63333	308
14.64167	308
14.65000	307
14.65833	306
14.66667	305
14.67500	304
14.68333	304
14.69167	303
14.70000	302
14.70833	301
14.71667	300
14.72500	299
14.73333	298
14.74167	297
14.75000	296
14.75833	296
14.76667	295
14.77500	294
14.78333	293
14.79167	292
14.80000	291
14.80833	290
14.81667	289
14.82500	288
14.83333	287
14.84167	286
14.85000	285
14.85833	284
14.86667	283
14.87500	283
14.88333	282
14.89167	281
14.90000	280
14.90833	279
14.91667	278
14.92500	277
14.93333	276
14.94167	276
14.95000	275
14.95833	275
14.96667	274
14.97500	273
14.98333	273
14.99167	274
15.00000	274
15.00833	275
15.01667	276
15.02500	277
15.03333	277
15.04167	279
15.05000	281
15.05833	283
15.06667	285
15.07500	288
15.08333	290
15.09167	294
15.10000	298
15.10833	302
15.11667	307
15.12500	312
15.13333	317
15.14167	323
15.15000	329
15.15833	336
15.16667	343
15.17500	350
15.18333	357
15.19167	364
15.20000	371
15.20833	378
15.21667	384
15.22500	391
15.23333	396
15.24167	401
15.25000	406
15.25833	409
15.26667	412
15.27500	414
15.28333	415
15.29167	415
15.30000	414
15.30833	412
15.31667	408
15.32500	404
15.33333	399
15.34167	394
15.35000	388
15.35833	381
15.36667	373
15.37500	365
15.38333	357
15.39167	349
15.40000	340
15.40833	331
15.41667	321
15.42500	312
15.43333	303
15.44167	293
15.45000	285
15.45833	276
15.46667	268
15.47500	261
15.48333	253
15.49167	246
15.50000	239
15.50833	233
15.51667	226
15.52500	220
15.53333	214
15.54167	209
15.55000	204
15.55833	199
15.56667	194
15.57500	190
15.58333	186
15.59167	182
15.60000	179
15.60833	176
15.61667	173
15.62500	171
15.63333	168
15.64167	166
15.65000	165
15.65833	163
15.66667	161
15.67500	160
15.68333	159
15.69167	158
15.70000	157
15.70833	156
15.71667	155
15.72500	155
15.73333	154
15.74167	153
15.75000	153
15.75833	153
15.76667	153
15.77500	154
15.78333	154
15.79167	154
15.80000	154
15.80833	154
15.81667	155
15.82500	155
15.83333	154
15.84167	154
15.85000	154
15.85833	154
15.86667	155
15.87500	155
15.88333	156
15.89167	157
15.90000	158
15.90833	159
15.91667	160
15.92500	162
15.93333	165
15.94167	168
15.95000	171
15.95833	175
15.96667	179
15.97500	184
15.98333	190
15.99167	196
16.00000	204
16.00833	211
16.01667	219
16.02500	228
16.03333	237
16.04167	247
16.05000	256
16.05833	266
16.06667	277
16.07500	287
16.08333	298
16.09167	308
16.10000	317
16.10833	326
16.11667	334
16.12500	342
16.13333	349
16.14167	354
16.15000	359
16.15833	363
16.16667	365
16.17500	367
16.18333	368
16.19167	367
16.20000	366
16.20833	363
16.21667	360
16.22500	355
16.23333	351
16.24167	346
16.25000	341
16.25833	336
16.26667	331
16.27500	325
16.28333	320
16.29167	316
16.30000	312
16.30833	309
16.31667	306
16.32500	303
16.33333	302
16.34167	301
16.35000	301
16.35833	301
16.36667	303
16.37500	306
16.38333	310
16.39167	315
16.40000	321
16.40833	328
16.41667	336
16.42500	345
16.43333	355
16.44167	366
16.45000	378
16.45833	391
16.46667	406
16.47500	421
16.48333	438
16.49167	456
16.50000	474
16.50833	493
16.51667	514
16.52500	535
16.53333	557
16.54167	580
16.55000	602
16.55833	625
16.56667	648
16.57500	671
16.58333	693
16.59167	714
16.60000	734
16.60833	752
16.61667	769
16.62500	784
16.63333	797
16.64167	808
16.65000	817
16.65833	823
16.66667	826
16.67500	827
16.68333	826
16.69167	821
16.70000	814
16.70833	805
16.71667	793
16.72500	779
16.73333	763
16.74167	745
16.75000	726
16.75833	706
16.76667	684
16.77500	662
16.78333	639
16.79167	615
16.80000	592
16.80833	568
16.81667	545
16.82500	522
16.83333	500
16.84167	478
16.85000	457
16.85833	437
16.86667	417
16.87500	399
16.88333	382
16.89167	365
16.90000	350
16.90833	336
16.91667	322
16.92500	310
16.93333	298
16.94167	288
16.95000	278
16.95833	268
16.96667	259
16.97500	251
16.98333	244
16.99167	237
17.00000	230
17.00833	224
17.01667	219
17.02500	213
17.03333	209
17.04167	204
17.05000	200
17.05833	195
17.06667	192
17.07500	188
17.08333	184
17.09167	181
17.10000	179
17.10833	176
17.11667	173
17.12500	171
17.13333	168
17.14167	166
17.15000	164
17.15833	162
17.16667	160
17.17500	158
17.18333	156
17.19167	155
17.20000	154
17.20833	153
17.21667	151
17.22500	150
17.23333	149
17.24167	148
17.25000	148
17.25833	147
17.26667	147
17.27500	146
17.28333	146
17.29167	146
17.30000	145
17.30833	145
17.31667	145
17.32500	144
17.33333	144
17.34167	143
17.35000	143
17.35833	143
17.36667	142
17.37500	142
17.38333	143
17.39167	143
17.40000	143
17.40833	144
17.41667	144
17.42500	144
17.43333	143
17.44167	144
17.45000	144
17.45833	145
17.46667	145
17.47500	145
17.48333	146
17.49167	147
17.50000	147
17.50833	148
17.51667	149
17.52500	149
17.53333	150
17.54167	151
17.55000	153
17.55833	154
17.56667	156
17.57500	158
17.58333	160
17.59167	162
17.60000	165
17.60833	168
17.61667	171
17.62500	175
17.63333	179
17.64167	183
17.65000	188
17.65833	192
17.66667	197
17.67500	202
17.68333	208
17.69167	214
17.70000	221
17.70833	229
17.71667	237
17.72500	247
17.73333	258
17.74167	269
17.75000	281
17.75833	295
17.76667	310
17.77500	326
17.78333	344
17.79167	363
17.80000	385
17.80833	409
17.81667	435
17.82500	464
17.83333	496
17.84167	531
17.85000	570
17.85833	613
17.86667	660
17.87500	711
17.88333	767
17.89167	829
17.90000	896
17.90833	969
17.91667	1049
17.92500	1134
17.93333	1226
17.94167	1324
17.95000	1430
17.95833	1542
17.96667	1660
17.97500	1784
17.98333	1913
17.99167	2049
18.00000	2188
18.00833	2331
18.01667	2476
18.02500	2623
18.03333	2769
18.04167	2915
18.05000	3058
18.05833	3197
18.06667	3330
18.07500	3457
18.08333	3575
18.09167	3684
18.10000	3783
18.10833	3869
18.11667	3942
18.12500	4002
18.13333	4047
18.14167	4076
18.15000	4091
18.15833	4091
18.16667	4075
18.17500	4045
18.18333	4001
18.19167	3944
18.20000	3874
18.20833	3793
18.21667	3700
18.22500	3599
18.23333	3489
18.24167	3372
18.25000	3250
18.25833	3124
18.26667	2996
18.27500	2865
18.28333	2733
18.29167	2602
18.30000	2472
18.30833	2343
18.31667	2218
18.32500	2095
18.33333	1977
18.34167	1863
18.35000	1755
18.35833	1651
18.36667	1552
18.37500	1458
18.38333	1370
18.39167	1287
18.40000	1210
18.40833	1137
18.41667	1070
18.42500	1007
18.43333	949
18.44167	894
18.45000	844
18.45833	798
18.46667	756
18.47500	716
18.48333	680
18.49167	647
18.50000	617
18.50833	589
18.51667	564
18.52500	541
18.53333	519
18.54167	500
18.55000	482
18.55833	467
18.56667	452
18.57500	440
18.58333	428
18.59167	418
18.60000	409
18.60833	401
18.61667	394
18.62500	388
18.63333	383
18.64167	379
18.65000	376
18.65833	374
18.66667	373
18.67500	373
18.68333	374
18.69167	375
18.70000	378
18.70833	381
18.71667	385
18.72500	390
18.73333	395
18.74167	401
18.75000	408
18.75833	416
18.76667	424
18.77500	432
18.78333	441
18.79167	450
18.80000	460
18.80833	469
18.81667	479
18.82500	489
18.83333	499
18.84167	510
18.85000	520
18.85833	529
18.86667	538
18.87500	547
18.88333	555
18.89167	562
18.90000	568
18.90833	574
18.91667	578
18.92500	582
18.93333	584
18.94167	586
18.95000	586
18.95833	586
18.96667	584
18.97500	581
18.98333	578
18.99167	574
19.00000	568
19.00833	563
19.01667	556
19.02500	549
19.03333	541
19.04167	533
19.05000	524
19.05833	514
19.06667	505
19.07500	495
19.08333	485
19.09167	475
19.10000	465
19.10833	455
19.11667	446
19.12500	437
19.13333	428
19.14167	419
19.15000	411
19.15833	403
19.16667	395
19.17500	388
19.18333	381
19.19167	374
19.20000	368
19.20833	362
19.21667	357
19.22500	352
19.23333	347
19.24167	343
19.25000	338
19.25833	335
19.26667	332
19.27500	329
19.28333	327
19.29167	325
19.30000	323
19.30833	322
19.31667	320
19.32500	319
19.33333	318
19.34167	317
19.35000	316
19.35833	316
19.36667	316
19.37500	316
19.38333	316
19.39167	316
19.40000	317
19.40833	317
19.41667	318
19.42500	318
19.43333	319
19.44167	320
19.45000	320
19.45833	321
19.46667	322
19.47500	323
19.48333	323
19.49167	324
19.50000	325
19.50833	326
19.51667	327
19.52500	328
19.53333	328
19.54167	329
19.55000	329
19.55833	330
19.56667	331
19.57500	332
19.58333	333
19.59167	333
19.60000	334
19.60833	334
19.61667	335
19.62500	335
19.63333	336
19.64167	336
19.65000	337
19.65833	338
19.66667	339
19.67500	339
19.68333	340
19.69167	340
19.70000	341
19.70833	341
19.71667	342
19.72500	342
19.73333	343
19.74167	343
19.75000	344
19.75833	344
19.76667	344
19.77500	345
19.78333	345
19.79167	345
19.80000	346
19.80833	346
19.81667	346
19.82500	347
19.83333	347
19.84167	348
19.85000	349
19.85833	349
19.86667	350
19.87500	350
19.88333	351
19.89167	351
19.90000	351
19.90833	351
19.91667	352
19.92500	352
19.93333	352
19.94167	353
19.95000	353
19.95833	353
19.96667	354
19.97500	354
19.98333	355
19.99167	356
20.00000	356
20.00833	357
20.01667	358
20.02500	358
20.03333	359
20.04167	360
20.05000	360
20.05833	361
20.06667	362
20.07500	363
20.08333	364
20.09167	364
20.10000	365
20.10833	366
20.11667	367
20.12500	367
20.13333	368
20.14167	369
20.15000	369
20.15833	370
20.16667	371
20.17500	372
20.18333	373
20.19167	374
20.20000	375
20.20833	375
20.21667	377
20.22500	377
20.23333	379
20.24167	380
20.25000	381
20.25833	383
20.26667	384
20.27500	386
20.28333	387
20.29167	389
20.30000	390
20.30833	392
20.31667	393
20.32500	395
20.33333	398
20.34167	400
20.35000	402
20.35833	405
20.36667	407
20.37500	410
20.38333	412
20.39167	415
20.40000	418
20.40833	421
20.41667	424
20.42500	428
20.43333	432
20.44167	435
20.45000	439
20.45833	443
20.46667	448
20.47500	452
20.48333	457
20.49167	463
20.50000	469
20.50833	475
20.51667	482
20.52500	489
20.53333	497
20.54167	504
20.55000	513
20.55833	522
20.56667	532
20.57500	542
20.58333	554
20.59167	566
20.60000	579
20.60833	593
20.61667	608
20.62500	624
20.63333	641
20.64167	659
20.65000	678
20.65833	698
20.66667	720
20.67500	743
20.68333	768
20.69167	794
20.70000	821
20.70833	850
20.71667	880
20.72500	911
20.73333	944
20.74167	977
20.75000	1011
20.75833	1047
20.76667	1083
20.77500	1121
20.78333	1159
20.79167	1198
20.80000	1237
20.80833	1276
20.81667	1315
20.82500	1355
20.83333	1394
20.84167	1434
20.85000	1472
20.85833	1510
20.86667	1548
20.87500	1584
20.88333	1620
20.89167	1655
20.90000	1689
20.90833	1721
20.91667	1753
20.92500	1784
20.93333	1814
20.94167	1843
20.95000	1872
20.95833	1899
20.96667	1926
20.97500	1953
20.98333	1979
20.99167	2006
21.00000	2032
21.00833	2059
21.01667	2086
21.02500	2114
21.03333	2144
21.04167	2175
21.05000	2209
21.05833	2244
21.06667	2281
21.07500	2322
21.08333	2366
21.09167	2414
21.10000	2466
21.10833	2522
21.11667	2584
21.12500	2652
21.13333	2726
21.14167	2807
21.15000	2896
21.15833	2993
21.16667	3098
21.17500	3214
21.18333	3340
21.19167	3477
21.20000	3625
21.20833	3786
21.21667	3959
21.22500	4146
21.23333	4347
21.24167	4561
21.25000	4791
21.25833	5036
21.26667	5295
21.27500	5569
21.28333	5858
21.29167	6161
21.30000	6479
21.30833	6810
21.31667	7153
21.32500	7507
21.33333	7871
21.34167	8243
21.35000	8623
21.35833	9008
21.36667	9396
21.37500	9785
21.38333	10173
21.39167	10557
21.40000	10936
21.40833	11306
21.41667	11665
21.42500	12011
21.43333	12342
21.44167	12654
21.45000	12946
21.45833	13216
21.46667	13462
21.47500	13681
21.48333	13873
21.49167	14036
21.50000	14169
21.50833	14270
21.51667	14340
21.52500	14378
21.53333	14385
21.54167	14359
21.55000	14303
21.55833	14215
21.56667	14098
21.57500	13951
21.58333	13778
21.59167	13579
21.60000	13355
21.60833	13110
21.61667	12844
21.62500	12559
21.63333	12258
21.64167	11942
21.65000	11613
21.65833	11274
21.66667	10926
21.67500	10572
21.68333	10213
21.69167	9851
21.70000	9488
21.70833	9126
21.71667	8766
21.72500	8410
21.73333	8058
21.74167	7712
21.75000	7374
21.75833	7043
21.76667	6721
21.77500	6408
21.78333	6104
21.79167	5812
21.80000	5530
21.80833	5259
21.81667	4999
21.82500	4750
21.83333	4511
21.84167	4284
21.85000	4067
21.85833	3862
21.86667	3666
21.87500	3481
21.88333	3305
21.89167	3139
21.90000	2981
21.90833	2833
21.91667	2693
21.92500	2561
21.93333	2437
21.94167	2320
21.95000	2210
21.95833	2106
21.96667	2009
21.97500	1918
21.98333	1832
21.99167	1751
22.00000	1676
22.00833	1606
22.01667	1540
22.02500	1478
22.03333	1420
22.04167	1366
22.05000	1316
22.05833	1269
22.06667	1226
22.07500	1186
22.08333	1148
22.09167	1113
22.10000	1080
22.10833	1050
22.11667	1022
22.12500	997
22.13333	973
22.14167	951
22.15000	931
22.15833	912
22.16667	896
22.17500	882
22.18333	869
22.19167	857
22.20000	846
22.20833	837
22.21667	828
22.22500	820
22.23333	814
22.24167	808
22.25000	803
22.25833	798
22.26667	794
22.27500	791
22.28333	787
22.29167	785
22.30000	782
22.30833	779
22.31667	777
22.32500	774
22.33333	772
22.34167	770
22.35000	768
22.35833	766
22.36667	764
22.37500	761
22.38333	759
22.39167	756
22.40000	753
22.40833	750
22.41667	746
22.42500	742
22.43333	738
22.44167	734
22.45000	729
22.45833	724
22.46667	719
22.47500	714
22.48333	709
22.49167	703
22.50000	696
22.50833	690
22.51667	683
22.52500	676
22.53333	670
22.54167	662
22.55000	655
22.55833	647
22.56667	638
22.57500	630
22.58333	622
22.59167	614
22.60000	606
22.60833	598
22.61667	590
22.62500	582
22.63333	574
22.64167	566
22.65000	558
22.65833	550
22.66667	542
22.67500	535
22.68333	527
22.69167	520
22.70000	513
22.70833	506
22.71667	500
22.72500	494
22.73333	487
22.74167	481
22.75000	476
22.75833	471
22.76667	466
22.77500	461
22.78333	457
22.79167	453
22.80000	450
22.80833	447
22.81667	444
22.82500	442
22.83333	440
22.84167	439
22.85000	437
22.85833	437
22.86667	436
22.87500	436
22.88333	435
22.89167	435
22.90000	436
22.90833	437
22.91667	438
22.92500	439
22.93333	441
22.94167	443
22.95000	444
22.95833	446
22.96667	448
22.97500	451
22.98333	453
22.99167	456
23.00000	458
23.00833	461
23.01667	463
23.02500	466
23.03333	469
23.04167	472
23.05000	474
23.05833	477
23.06667	480
23.07500	483
23.08333	485
23.09167	488
23.10000	490
23.10833	492
23.11667	494
23.12500	496
23.13333	498
23.14167	500
23.15000	502
23.15833	503
23.16667	504
23.17500	506
23.18333	506
23.19167	507
23.20000	508
23.20833	508
23.21667	509
23.22500	509
23.23333	509
23.24167	509
23.25000	510
23.25833	510
23.26667	510
23.27500	510
23.28333	510
23.29167	510
23.30000	509
23.30833	509
23.31667	509
23.32500	508
23.33333	507
23.34167	507
23.35000	506
23.35833	506
23.36667	505
23.37500	505
23.38333	505
23.39167	504
23.40000	503
23.40833	502
23.41667	502
23.42500	501
23.43333	500
23.44167	500
23.45000	499
23.45833	498
23.46667	497
23.47500	497
23.48333	496
23.49167	495
23.50000	495
23.50833	495
23.51667	494
23.52500	494
23.53333	493
23.54167	492
23.55000	491
23.55833	490
23.56667	490
23.57500	490
23.58333	489
23.59167	488
23.60000	487
23.60833	487
23.61667	486
23.62500	485
23.63333	485
23.64167	484
23.65000	484
23.65833	483
23.66667	483
23.67500	482
23.68333	482
23.69167	482
23.70000	483
23.70833	483
23.71667	483
23.72500	482
23.73333	482
23.74167	481
23.75000	481
23.75833	481
23.76667	481
23.77500	481
23.78333	481
23.79167	481
23.80000	481
23.80833	480
23.81667	480
23.82500	480
23.83333	480
23.84167	480
23.85000	480
23.85833	480
23.86667	480
23.87500	480
23.88333	480
23.89167	480
23.90000	481
23.90833	481
23.91667	481
23.92500	480
23.93333	480
23.94167	480
23.95000	480
23.95833	480
23.96667	480
23.97500	480
23.98333	480
23.99167	480
24.00000	480
24.00833	480
24.01667	480
24.02500	480
24.03333	480
24.04167	479
24.05000	479
24.05833	479
24.06667	479
24.07500	479
24.08333	479
24.09167	478
24.10000	478
24.10833	477
24.11667	476
24.12500	476
24.13333	475
24.14167	474
24.15000	473
24.15833	472
24.16667	471
24.17500	469
24.18333	468
24.19167	466
24.20000	465
24.20833	463
24.21667	462
24.22500	460
24.23333	458
24.24167	456
24.25000	454
24.25833	452
24.26667	450
24.27500	448
24.28333	446
24.29167	445
24.30000	442
24.30833	440
24.31667	437
24.32500	435
24.33333	433
24.34167	431
24.35000	429
24.35833	426
24.36667	424
24.37500	422
24.38333	420
24.39167	418
24.40000	416
24.40833	414
24.41667	412
24.42500	410
24.43333	408
24.44167	406
24.45000	404
24.45833	403
24.46667	401
24.47500	399
24.48333	398
24.49167	397
24.50000	396
24.50833	395
24.51667	394
24.52500	393
24.53333	392
24.54167	391
24.55000	390
24.55833	390
24.56667	389
24.57500	389
24.58333	388
24.59167	388
24.60000	387
24.60833	387
24.61667	387
24.62500	386
24.63333	386
24.64167	386
24.65000	386
24.65833	386
24.66667	386
24.67500	386
24.68333	386
24.69167	386
24.70000	386
24.70833	387
24.71667	387
24.72500	387
24.73333	388
24.74167	388
24.75000	388
24.75833	388
24.76667	388
24.77500	389
24.78333	389
24.79167	389
24.80000	389
24.80833	390
24.81667	389
24.82500	389
24.83333	388
24.84167	388
24.85000	388
24.85833	389
24.86667	388
24.87500	388
24.88333	388
24.89167	388
24.90000	387
24.90833	387
24.91667	387
24.92500	386
24.93333	386
24.94167	386
24.95000	386
24.95833	385
24.96667	384
24.97500	383
24.98333	382
24.99167	382
25.00000	381
25.00833	380
25.01667	380
25.02500	380
25.03333	379
25.04167	379
25.05000	379
25.05833	378
25.06667	378
25.07500	378
25.08333	377
25.09167	377
25.10000	377
25.10833	377
25.11667	377
25.12500	377
25.13333	376
25.14167	377
25.15000	377
25.15833	377
25.16667	377
25.17500	377
25.18333	377
25.19167	376
25.20000	376
25.20833	375
25.21667	375
25.22500	374
25.23333	373
25.24167	373
25.25000	373
25.25833	372
25.26667	372
25.27500	372
25.28333	371
25.29167	370
25.30000	370
25.30833	370
25.31667	370
25.32500	369
25.33333	369
25.34167	369
25.35000	368
25.35833	368
25.36667	368
25.37500	368
25.38333	367
25.39167	367
25.40000	367
25.40833	367
25.41667	367
25.42500	367
25.43333	368
25.44167	368
25.45000	368
25.45833	368
25.46667	368
25.47500	368
25.48333	368
25.49167	368
25.50000	368
25.50833	369
25.51667	369
25.52500	370
25.53333	370
25.54167	370
25.55000	370
25.55833	371
25.56667	372
25.57500	372
25.58333	372
25.59167	373
25.60000	373
25.60833	373
25.61667	373
25.62500	374
25.63333	374
25.64167	375
25.65000	375
25.65833	376
25.66667	376
25.67500	377
25.68333	378
25.69167	379
25.70000	379
25.70833	380
25.71667	380
25.72500	381
25.73333	381
25.74167	382
25.75000	383
25.75833	383
25.76667	384
25.77500	385
25.78333	386
25.79167	386
25.80000	387
25.80833	388
25.81667	389
25.82500	390
25.83333	391
25.84167	392
25.85000	392
25.85833	393
25.86667	394
25.87500	395
25.88333	397
25.89167	398
25.90000	399
25.90833	401
25.91667	402
25.92500	404
25.93333	406
25.94167	408
25.95000	411
25.95833	413
25.96667	416
25.97500	419
25.98333	422
25.99167	425
26.00000	429
26.00833	432
26.01667	436
26.02500	440
26.03333	445
26.04167	450
26.05000	455
26.05833	461
26.06667	467
26.07500	473
26.08333	480
26.09167	488
26.10000	495
26.10833	504
26.11667	513
26.12500	522
26.13333	532
26.14167	542
26.15000	553
26.15833	565
26.16667	578
26.17500	592
26.18333	606
26.19167	620
26.20000	636
26.20833	652
26.21667	670
26.22500	689
26.23333	708
26.24167	728
26.25000	749
26.25833	772
26.26667	795
26.27500	818
26.28333	843
26.29167	868
26.30000	894
26.30833	920
26.31667	948
26.32500	976
26.33333	1004
26.34167	1033
26.35000	1062
26.35833	1092
26.36667	1122
26.37500	1152
26.38333	1182
26.39167	1211
26.40000	1240
26.40833	1269
26.41667	1297
26.42500	1324
26.43333	1350
26.44167	1375
26.45000	1399
26.45833	1421
26.46667	1441
26.47500	1461
26.48333	1478
26.49167	1494
26.50000	1508
26.50833	1520
26.51667	1530
26.52500	1538
26.53333	1543
26.54167	1546
26.55000	1547
26.55833	1546
26.56667	1542
26.57500	1537
26.58333	1529
26.59167	1519
26.60000	1507
26.60833	1493
26.61667	1477
26.62500	1459
26.63333	1440
26.64167	1419
26.65000	1397
26.65833	1373
26.66667	1348
26.67500	1322
26.68333	1295
26.69167	1267
26.70000	1239
26.70833	1209
26.71667	1180
26.72500	1150
26.73333	1120
26.74167	1090
26.75000	1059
26.75833	1030
26.76667	1000
26.77500	971
26.78333	943
26.79167	914
26.80000	886
26.80833	858
26.81667	832
26.82500	806
26.83333	781
26.84167	756
26.85000	733
26.85833	711
26.86667	690
26.87500	669
26.88333	649
26.89167	630
26.90000	612
26.90833	593
26.91667	576
26.92500	560
26.93333	544
26.94167	529
26.95000	515
26.95833	502
26.96667	490
26.97500	478
26.98333	467
26.99167	456
27.00000	445
27.00833	435
27.01667	426
27.02500	417
27.03333	408
27.04167	400
27.05000	393
27.05833	386
27.06667	379
27.07500	373
27.08333	367
27.09167	360
27.10000	355
27.10833	350
27.11667	345
27.12500	340
27.13333	335
27.14167	331
27.15000	326
27.15833	322
27.16667	318
27.17500	314
27.18333	310
27.19167	306
27.20000	302
27.20833	299
27.21667	296
27.22500	292
27.23333	289
27.24167	286
27.25000	283
27.25833	281
27.26667	278
27.27500	276
27.28333	273
27.29167	270
27.30000	268
27.30833	265
27.31667	263
27.32500	260
27.33333	258
27.34167	256
27.35000	254
27.35833	251
27.36667	249
27.37500	248
27.38333	246
27.39167	244
27.40000	242
27.40833	241
27.41667	239
27.42500	237
27.43333	236
27.44167	234
27.45000	233
27.45833	232
27.46667	231
27.47500	230
27.48333	229
27.49167	228
27.50000	227
27.50833	226
27.51667	224
27.52500	223
27.53333	222
27.54167	221
27.55000	220
27.55833	219
27.56667	218
27.57500	217
27.58333	217
27.59167	216
27.60000	215
27.60833	214
27.61667	213
27.62500	212
27.63333	212
27.64167	211
27.65000	210
27.65833	209
27.66667	208
27.67500	207
27.68333	207
27.69167	206
27.70000	205
27.70833	204
27.71667	203
27.72500	202
27.73333	201
27.74167	200
27.75000	199
27.75833	199
27.76667	199
27.77500	198
27.78333	198
27.79167	198
27.80000	197
27.80833	196
27.81667	196
27.82500	195
27.83333	194
27.84167	194
27.85000	193
27.85833	193
27.86667	192
27.87500	191
27.88333	191
27.89167	190
27.90000	190
27.90833	189
27.91667	188
27.92500	187
27.93333	187
27.94167	187
27.95000	187
27.95833	186
27.96667	186
27.97500	185
27.98333	185
27.99167	184
28.00000	184

