R.Time (min)	Intensity
0.00000	-48
0.00833	-48
0.01667	-16
0.02500	-1
0.03333	-1
0.04167	-2
0.05000	-2
0.05833	-3
0.06667	-4
0.07500	-4
0.08333	-5
0.09167	-5
0.10000	-5
0.10833	-5
0.11667	-5
0.12500	-5
0.13333	-5
0.14167	-6
0.15000	-6
0.15833	-7
0.16667	-8
0.17500	-8
0.18333	-9
0.19167	-10
0.20000	-11
0.20833	-12
0.21667	-12
0.22500	-13
0.23333	-14
0.24167	-15
0.25000	-15
0.25833	-16
0.26667	-17
0.27500	-17
0.28333	-18
0.29167	-18
0.30000	-19
0.30833	-19
0.31667	-20
0.32500	-21
0.33333	-21
0.34167	-22
0.35000	-23
0.35833	-24
0.36667	-25
0.37500	-26
0.38333	-27
0.39167	-28
0.40000	-28
0.40833	-29
0.41667	-29
0.42500	-30
0.43333	-30
0.44167	-30
0.45000	-31
0.45833	-32
0.46667	-32
0.47500	-34
0.48333	-35
0.49167	-35
0.50000	-36
0.50833	-36
0.51667	-36
0.52500	-37
0.53333	-37
0.54167	-37
0.55000	-38
0.55833	-38
0.56667	-39
0.57500	-39
0.58333	-40
0.59167	-41
0.60000	-41
0.60833	-41
0.61667	-42
0.62500	-42
0.63333	-43
0.64167	-44
0.65000	-44
0.65833	-45
0.66667	-45
0.67500	-45
0.68333	-45
0.69167	-46
0.70000	-46
0.70833	-46
0.71667	-47
0.72500	-47
0.73333	-47
0.74167	-48
0.75000	-48
0.75833	-49
0.76667	-49
0.77500	-50
0.78333	-50
0.79167	-50
0.80000	-51
0.80833	-51
0.81667	-52
0.82500	-52
0.83333	-53
0.84167	-53
0.85000	-53
0.85833	-53
0.86667	-53
0.87500	-53
0.88333	-54
0.89167	-54
0.90000	-54
0.90833	-55
0.91667	-55
0.92500	-55
0.93333	-55
0.94167	-56
0.95000	-56
0.95833	-57
0.96667	-57
0.97500	-58
0.98333	-58
0.99167	-59
1.00000	-59
1.00833	-59
1.01667	-60
1.02500	-60
1.03333	-61
1.04167	-62
1.05000	-62
1.05833	-63
1.06667	-63
1.07500	-64
1.08333	-64
1.09167	-64
1.10000	-64
1.10833	-65
1.11667	-65
1.12500	-65
1.13333	-66
1.14167	-66
1.15000	-67
1.15833	-67
1.16667	-67
1.17500	-67
1.18333	-67
1.19167	-68
1.20000	-68
1.20833	-69
1.21667	-69
1.22500	-70
1.23333	-70
1.24167	-71
1.25000	-71
1.25833	-71
1.26667	-71
1.27500	-71
1.28333	-72
1.29167	-72
1.30000	-72
1.30833	-72
1.31667	-73
1.32500	-73
1.33333	-73
1.34167	-73
1.35000	-73
1.35833	-73
1.36667	-73
1.37500	-73
1.38333	-74
1.39167	-74
1.40000	-75
1.40833	-75
1.41667	-75
1.42500	-75
1.43333	-75
1.44167	-75
1.45000	-75
1.45833	-75
1.46667	-75
1.47500	-76
1.48333	-76
1.49167	-77
1.50000	-77
1.50833	-77
1.51667	-78
1.52500	-78
1.53333	-78
1.54167	-79
1.55000	-79
1.55833	-78
1.56667	-78
1.57500	-79
1.58333	-79
1.59167	-79
1.60000	-79
1.60833	-79
1.61667	-79
1.62500	-79
1.63333	-80
1.64167	-80
1.65000	-80
1.65833	-81
1.66667	-81
1.67500	-82
1.68333	-82
1.69167	-82
1.70000	-83
1.70833	-83
1.71667	-83
1.72500	-83
1.73333	-83
1.74167	-83
1.75000	-83
1.75833	-83
1.76667	-83
1.77500	-83
1.78333	-84
1.79167	-84
1.80000	-84
1.80833	-84
1.81667	-84
1.82500	-85
1.83333	-86
1.84167	-86
1.85000	-85
1.85833	-86
1.86667	-86
1.87500	-86
1.88333	-86
1.89167	-86
1.90000	-86
1.90833	-86
1.91667	-86
1.92500	-86
1.93333	-86
1.94167	-87
1.95000	-87
1.95833	-87
1.96667	-88
1.97500	-88
1.98333	-88
1.99167	-88
2.00000	-88
2.00833	-88
2.01667	-88
2.02500	-88
2.03333	-88
2.04167	-89
2.05000	-89
2.05833	-88
2.06667	-88
2.07500	-88
2.08333	-88
2.09167	-87
2.10000	-87
2.10833	-87
2.11667	-87
2.12500	-87
2.13333	-87
2.14167	-87
2.15000	-87
2.15833	-87
2.16667	-87
2.17500	-86
2.18333	-86
2.19167	-85
2.20000	-85
2.20833	-85
2.21667	-84
2.22500	-83
2.23333	-82
2.24167	-82
2.25000	-81
2.25833	-80
2.26667	-79
2.27500	-79
2.28333	-78
2.29167	-77
2.30000	-76
2.30833	-75
2.31667	-74
2.32500	-72
2.33333	-71
2.34167	-70
2.35000	-69
2.35833	-67
2.36667	-65
2.37500	-64
2.38333	-62
2.39167	-60
2.40000	-58
2.40833	-56
2.41667	-54
2.42500	-51
2.43333	-48
2.44167	-45
2.45000	-42
2.45833	-39
2.46667	-35
2.47500	-31
2.48333	-27
2.49167	-23
2.50000	-19
2.50833	-14
2.51667	-9
2.52500	-4
2.53333	1
2.54167	7
2.55000	13
2.55833	19
2.56667	26
2.57500	33
2.58333	41
2.59167	49
2.60000	57
2.60833	66
2.61667	76
2.62500	86
2.63333	96
2.64167	107
2.65000	118
2.65833	131
2.66667	144
2.67500	157
2.68333	172
2.69167	187
2.70000	203
2.70833	220
2.71667	238
2.72500	256
2.73333	276
2.74167	296
2.75000	318
2.75833	341
2.76667	365
2.77500	390
2.78333	416
2.79167	444
2.80000	474
2.80833	504
2.81667	537
2.82500	571
2.83333	606
2.84167	644
2.85000	683
2.85833	725
2.86667	768
2.87500	813
2.88333	861
2.89167	911
2.90000	963
2.90833	1017
2.91667	1074
2.92500	1133
2.93333	1195
2.94167	1258
2.95000	1324
2.95833	1393
2.96667	1464
2.97500	1538
2.98333	1614
2.99167	1693
3.00000	1774
3.00833	1857
3.01667	1942
3.02500	2029
3.03333	2119
3.04167	2210
3.05000	2303
3.05833	2398
3.06667	2494
3.07500	2591
3.08333	2689
3.09167	2787
3.10000	2886
3.10833	2984
3.11667	3083
3.12500	3181
3.13333	3278
3.14167	3375
3.15000	3470
3.15833	3563
3.16667	3653
3.17500	3742
3.18333	3827
3.19167	3910
3.20000	3988
3.20833	4064
3.21667	4134
3.22500	4201
3.23333	4262
3.24167	4319
3.25000	4371
3.25833	4418
3.26667	4459
3.27500	4494
3.28333	4524
3.29167	4548
3.30000	4565
3.30833	4576
3.31667	4581
3.32500	4579
3.33333	4572
3.34167	4558
3.35000	4538
3.35833	4513
3.36667	4481
3.37500	4443
3.38333	4400
3.39167	4351
3.40000	4298
3.40833	4238
3.41667	4174
3.42500	4106
3.43333	4034
3.44167	3958
3.45000	3879
3.45833	3796
3.46667	3710
3.47500	3622
3.48333	3531
3.49167	3438
3.50000	3344
3.50833	3248
3.51667	3151
3.52500	3053
3.53333	2955
3.54167	2857
3.55000	2759
3.55833	2660
3.56667	2563
3.57500	2466
3.58333	2371
3.59167	2276
3.60000	2184
3.60833	2093
3.61667	2003
3.62500	1916
3.63333	1831
3.64167	1748
3.65000	1667
3.65833	1588
3.66667	1512
3.67500	1437
3.68333	1366
3.69167	1297
3.70000	1231
3.70833	1167
3.71667	1106
3.72500	1047
3.73333	991
3.74167	938
3.75000	887
3.75833	838
3.76667	791
3.77500	747
3.78333	706
3.79167	666
3.80000	629
3.80833	593
3.81667	559
3.82500	527
3.83333	497
3.84167	469
3.85000	443
3.85833	418
3.86667	394
3.87500	372
3.88333	351
3.89167	332
3.90000	313
3.90833	296
3.91667	280
3.92500	265
3.93333	251
3.94167	238
3.95000	226
3.95833	215
3.96667	204
3.97500	193
3.98333	184
3.99167	175
4.00000	166
4.00833	158
4.01667	150
4.02500	143
4.03333	136
4.04167	129
4.05000	123
4.05833	117
4.06667	111
4.07500	105
4.08333	100
4.09167	94
4.10000	89
4.10833	85
4.11667	80
4.12500	75
4.13333	70
4.14167	65
4.15000	60
4.15833	55
4.16667	50
4.17500	45
4.18333	41
4.19167	36
4.20000	32
4.20833	28
4.21667	24
4.22500	20
4.23333	16
4.24167	11
4.25000	7
4.25833	3
4.26667	-1
4.27500	-4
4.28333	-8
4.29167	-11
4.30000	-15
4.30833	-18
4.31667	-22
4.32500	-25
4.33333	-29
4.34167	-32
4.35000	-35
4.35833	-38
4.36667	-42
4.37500	-45
4.38333	-48
4.39167	-50
4.40000	-52
4.40833	-54
4.41667	-57
4.42500	-59
4.43333	-61
4.44167	-63
4.45000	-65
4.45833	-67
4.46667	-69
4.47500	-70
4.48333	-71
4.49167	-72
4.50000	-73
4.50833	-74
4.51667	-75
4.52500	-75
4.53333	-76
4.54167	-76
4.55000	-77
4.55833	-77
4.56667	-78
4.57500	-78
4.58333	-78
4.59167	-79
4.60000	-79
4.60833	-79
4.61667	-79
4.62500	-78
4.63333	-78
4.64167	-78
4.65000	-77
4.65833	-76
4.66667	-76
4.67500	-75
4.68333	-74
4.69167	-73
4.70000	-73
4.70833	-72
4.71667	-72
4.72500	-72
4.73333	-71
4.74167	-71
4.75000	-70
4.75833	-69
4.76667	-68
4.77500	-67
4.78333	-66
4.79167	-65
4.80000	-64
4.80833	-63
4.81667	-62
4.82500	-61
4.83333	-61
4.84167	-60
4.85000	-59
4.85833	-59
4.86667	-58
4.87500	-58
4.88333	-57
4.89167	-56
4.90000	-55
4.90833	-55
4.91667	-55
4.92500	-54
4.93333	-54
4.94167	-53
4.95000	-53
4.95833	-53
4.96667	-53
4.97500	-52
4.98333	-52
4.99167	-52
5.00000	-52
5.00833	-52
5.01667	-51
5.02500	-51
5.03333	-52
5.04167	-52
5.05000	-53
5.05833	-53
5.06667	-53
5.07500	-54
5.08333	-54
5.09167	-54
5.10000	-54
5.10833	-54
5.11667	-54
5.12500	-55
5.13333	-55
5.14167	-55
5.15000	-55
5.15833	-56
5.16667	-56
5.17500	-57
5.18333	-57
5.19167	-57
5.20000	-58
5.20833	-58
5.21667	-58
5.22500	-59
5.23333	-59
5.24167	-59
5.25000	-60
5.25833	-60
5.26667	-61
5.27500	-62
5.28333	-62
5.29167	-63
5.30000	-64
5.30833	-64
5.31667	-65
5.32500	-65
5.33333	-65
5.34167	-66
5.35000	-67
5.35833	-67
5.36667	-68
5.37500	-68
5.38333	-69
5.39167	-69
5.40000	-70
5.40833	-70
5.41667	-71
5.42500	-72
5.43333	-72
5.44167	-73
5.45000	-74
5.45833	-74
5.46667	-75
5.47500	-75
5.48333	-76
5.49167	-76
5.50000	-76
5.50833	-77
5.51667	-78
5.52500	-79
5.53333	-80
5.54167	-80
5.55000	-81
5.55833	-81
5.56667	-82
5.57500	-83
5.58333	-83
5.59167	-83
5.60000	-84
5.60833	-84
5.61667	-85
5.62500	-86
5.63333	-87
5.64167	-87
5.65000	-88
5.65833	-88
5.66667	-89
5.67500	-89
5.68333	-89
5.69167	-89
5.70000	-90
5.70833	-90
5.71667	-91
5.72500	-92
5.73333	-92
5.74167	-93
5.75000	-93
5.75833	-94
5.76667	-94
5.77500	-95
5.78333	-95
5.79167	-95
5.80000	-95
5.80833	-96
5.81667	-97
5.82500	-97
5.83333	-98
5.84167	-98
5.85000	-98
5.85833	-98
5.86667	-98
5.87500	-98
5.88333	-98
5.89167	-99
5.90000	-99
5.90833	-99
5.91667	-100
5.92500	-100
5.93333	-100
5.94167	-101
5.95000	-101
5.95833	-101
5.96667	-101
5.97500	-101
5.98333	-101
5.99167	-101
6.00000	-100
6.00833	-100
6.01667	-100
6.02500	-100
6.03333	-100
6.04167	-100
6.05000	-100
6.05833	-100
6.06667	-100
6.07500	-100
6.08333	-100
6.09167	-100
6.10000	-100
6.10833	-100
6.11667	-99
6.12500	-99
6.13333	-99
6.14167	-99
6.15000	-99
6.15833	-99
6.16667	-99
6.17500	-99
6.18333	-98
6.19167	-98
6.20000	-98
6.20833	-98
6.21667	-98
6.22500	-98
6.23333	-98
6.24167	-98
6.25000	-98
6.25833	-98
6.26667	-98
6.27500	-99
6.28333	-99
6.29167	-99
6.30000	-99
6.30833	-99
6.31667	-100
6.32500	-100
6.33333	-100
6.34167	-100
6.35000	-100
6.35833	-100
6.36667	-100
6.37500	-100
6.38333	-100
6.39167	-101
6.40000	-101
6.40833	-101
6.41667	-101
6.42500	-101
6.43333	-101
6.44167	-101
6.45000	-101
6.45833	-102
6.46667	-102
6.47500	-103
6.48333	-103
6.49167	-103
6.50000	-103
6.50833	-104
6.51667	-104
6.52500	-104
6.53333	-104
6.54167	-104
6.55000	-105
6.55833	-105
6.56667	-106
6.57500	-106
6.58333	-106
6.59167	-106
6.60000	-106
6.60833	-105
6.61667	-105
6.62500	-106
6.63333	-106
6.64167	-106
6.65000	-106
6.65833	-106
6.66667	-106
6.67500	-106
6.68333	-106
6.69167	-106
6.70000	-106
6.70833	-106
6.71667	-106
6.72500	-106
6.73333	-105
6.74167	-105
6.75000	-105
6.75833	-106
6.76667	-105
6.77500	-105
6.78333	-106
6.79167	-106
6.80000	-106
6.80833	-107
6.81667	-107
6.82500	-107
6.83333	-107
6.84167	-107
6.85000	-107
6.85833	-107
6.86667	-107
6.87500	-108
6.88333	-108
6.89167	-108
6.90000	-108
6.90833	-107
6.91667	-107
6.92500	-106
6.93333	-106
6.94167	-106
6.95000	-106
6.95833	-105
6.96667	-106
6.97500	-106
6.98333	-106
6.99167	-106
7.00000	-106
7.00833	-106
7.01667	-106
7.02500	-106
7.03333	-106
7.04167	-106
7.05000	-105
7.05833	-105
7.06667	-104
7.07500	-103
7.08333	-102
7.09167	-100
7.10000	-97
7.10833	-93
7.11667	-88
7.12500	-82
7.13333	-75
7.14167	-66
7.15000	-56
7.15833	-44
7.16667	-30
7.17500	-14
7.18333	5
7.19167	26
7.20000	48
7.20833	73
7.21667	99
7.22500	128
7.23333	158
7.24167	188
7.25000	219
7.25833	248
7.26667	275
7.27500	298
7.28333	316
7.29167	325
7.30000	325
7.30833	314
7.31667	293
7.32500	262
7.33333	224
7.34167	187
7.35000	160
7.35833	155
7.36667	188
7.37500	277
7.38333	443
7.39167	706
7.40000	1087
7.40833	1604
7.41667	2271
7.42500	3101
7.43333	4098
7.44167	5261
7.45000	6580
7.45833	8037
7.46667	9605
7.47500	11244
7.48333	12907
7.49167	14537
7.50000	16070
7.50833	17442
7.51667	18588
7.52500	19454
7.53333	19998
7.54167	20199
7.55000	20053
7.55833	19578
7.56667	18813
7.57500	17807
7.58333	16621
7.59167	15316
7.60000	13952
7.60833	12583
7.61667	11253
7.62500	9996
7.63333	8835
7.64167	7784
7.65000	6847
7.65833	6025
7.66667	5312
7.67500	4697
7.68333	4172
7.69167	3725
7.70000	3344
7.70833	3020
7.71667	2742
7.72500	2504
7.73333	2297
7.74167	2117
7.75000	1959
7.75833	1819
7.76667	1694
7.77500	1581
7.78333	1479
7.79167	1386
7.80000	1301
7.80833	1222
7.81667	1148
7.82500	1080
7.83333	1016
7.84167	955
7.85000	898
7.85833	844
7.86667	794
7.87500	745
7.88333	699
7.89167	655
7.90000	614
7.90833	575
7.91667	539
7.92500	506
7.93333	475
7.94167	447
7.95000	421
7.95833	399
7.96667	379
7.97500	362
7.98333	348
7.99167	335
8.00000	324
8.00833	315
8.01667	307
8.02500	300
8.03333	293
8.04167	287
8.05000	281
8.05833	275
8.06667	269
8.07500	262
8.08333	255
8.09167	247
8.10000	240
8.10833	232
8.11667	224
8.12500	215
8.13333	207
8.14167	199
8.15000	191
8.15833	183
8.16667	176
8.17500	169
8.18333	161
8.19167	154
8.20000	148
8.20833	141
8.21667	136
8.22500	131
8.23333	127
8.24167	123
8.25000	120
8.25833	117
8.26667	115
8.27500	113
8.28333	111
8.29167	109
8.30000	108
8.30833	107
8.31667	107
8.32500	106
8.33333	105
8.34167	105
8.35000	104
8.35833	104
8.36667	104
8.37500	103
8.38333	103
8.39167	103
8.40000	103
8.40833	102
8.41667	101
8.42500	101
8.43333	100
8.44167	99
8.45000	97
8.45833	96
8.46667	94
8.47500	93
8.48333	91
8.49167	90
8.50000	89
8.50833	87
8.51667	86
8.52500	85
8.53333	83
8.54167	82
8.55000	81
8.55833	81
8.56667	80
8.57500	80
8.58333	81
8.59167	82
8.60000	84
8.60833	87
8.61667	91
8.62500	96
8.63333	104
8.64167	112
8.65000	123
8.65833	135
8.66667	149
8.67500	166
8.68333	185
8.69167	206
8.70000	228
8.70833	251
8.71667	275
8.72500	300
8.73333	324
8.74167	348
8.75000	370
8.75833	391
8.76667	410
8.77500	426
8.78333	440
8.79167	451
8.80000	460
8.80833	466
8.81667	469
8.82500	470
8.83333	471
8.84167	471
8.85000	471
8.85833	472
8.86667	475
8.87500	480
8.88333	489
8.89167	502
8.90000	522
8.90833	548
8.91667	583
8.92500	627
8.93333	680
8.94167	743
8.95000	817
8.95833	901
8.96667	995
8.97500	1098
8.98333	1210
8.99167	1328
9.00000	1450
9.00833	1575
9.01667	1700
9.02500	1822
9.03333	1938
9.04167	2046
9.05000	2144
9.05833	2229
9.06667	2299
9.07500	2354
9.08333	2392
9.09167	2412
9.10000	2414
9.10833	2399
9.11667	2367
9.12500	2321
9.13333	2260
9.14167	2187
9.15000	2104
9.15833	2013
9.16667	1916
9.17500	1815
9.18333	1712
9.19167	1608
9.20000	1505
9.20833	1405
9.21667	1309
9.22500	1216
9.23333	1129
9.24167	1048
9.25000	972
9.25833	902
9.26667	838
9.27500	781
9.28333	729
9.29167	683
9.30000	642
9.30833	606
9.31667	575
9.32500	548
9.33333	525
9.34167	506
9.35000	490
9.35833	478
9.36667	469
9.37500	464
9.38333	463
9.39167	465
9.40000	472
9.40833	485
9.41667	503
9.42500	529
9.43333	564
9.44167	609
9.45000	667
9.45833	740
9.46667	832
9.47500	947
9.48333	1088
9.49167	1260
9.50000	1468
9.50833	1718
9.51667	2015
9.52500	2364
9.53333	2772
9.54167	3241
9.55000	3776
9.55833	4377
9.56667	5047
9.57500	5784
9.58333	6585
9.59167	7444
9.60000	8353
9.60833	9304
9.61667	10285
9.62500	11283
9.63333	12282
9.64167	13269
9.65000	14227
9.65833	15140
9.66667	15994
9.67500	16775
9.68333	17471
9.69167	18074
9.70000	18575
9.70833	18971
9.71667	19259
9.72500	19441
9.73333	19521
9.74167	19506
9.75000	19403
9.75833	19224
9.76667	18980
9.77500	18683
9.78333	18346
9.79167	17983
9.80000	17605
9.80833	17226
9.81667	16855
9.82500	16503
9.83333	16178
9.84167	15888
9.85000	15640
9.85833	15437
9.86667	15283
9.87500	15182
9.88333	15133
9.89167	15138
9.90000	15195
9.90833	15304
9.91667	15463
9.92500	15671
9.93333	15923
9.94167	16219
9.95000	16554
9.95833	16925
9.96667	17329
9.97500	17763
9.98333	18225
9.99167	18709
10.00000	19214
10.00833	19736
10.01667	20271
10.02500	20816
10.03333	21365
10.04167	21910
10.05000	22442
10.05833	22945
10.06667	23397
10.07500	23769
10.08333	24027
10.09167	24130
10.10000	24041
10.10833	23723
10.11667	23156
10.12500	22334
10.13333	21268
10.14167	19991
10.15000	18547
10.15833	16993
10.16667	15384
10.17500	13778
10.18333	12221
10.19167	10752
10.20000	9396
10.20833	8170
10.21667	7078
10.22500	6121
10.23333	5292
10.24167	4580
10.25000	3974
10.25833	3461
10.26667	3027
10.27500	2663
10.28333	2357
10.29167	2098
10.30000	1881
10.30833	1696
10.31667	1539
10.32500	1404
10.33333	1288
10.34167	1186
10.35000	1097
10.35833	1018
10.36667	947
10.37500	884
10.38333	826
10.39167	774
10.40000	725
10.40833	681
10.41667	639
10.42500	601
10.43333	566
10.44167	534
10.45000	504
10.45833	476
10.46667	451
10.47500	428
10.48333	408
10.49167	390
10.50000	374
10.50833	360
10.51667	348
10.52500	338
10.53333	330
10.54167	323
10.55000	318
10.55833	314
10.56667	311
10.57500	309
10.58333	307
10.59167	305
10.60000	303
10.60833	301
10.61667	299
10.62500	296
10.63333	292
10.64167	287
10.65000	281
10.65833	273
10.66667	265
10.67500	256
10.68333	246
10.69167	236
10.70000	225
10.70833	213
10.71667	201
10.72500	189
10.73333	176
10.74167	164
10.75000	153
10.75833	141
10.76667	131
10.77500	120
10.78333	111
10.79167	103
10.80000	95
10.80833	87
10.81667	81
10.82500	75
10.83333	70
10.84167	66
10.85000	62
10.85833	58
10.86667	56
10.87500	53
10.88333	51
10.89167	50
10.90000	48
10.90833	47
10.91667	45
10.92500	44
10.93333	42
10.94167	41
10.95000	39
10.95833	38
10.96667	36
10.97500	33
10.98333	31
10.99167	30
11.00000	28
11.00833	26
11.01667	24
11.02500	22
11.03333	21
11.04167	20
11.05000	19
11.05833	18
11.06667	17
11.07500	17
11.08333	17
11.09167	18
11.10000	18
11.10833	19
11.11667	20
11.12500	22
11.13333	24
11.14167	26
11.15000	28
11.15833	31
11.16667	33
11.17500	37
11.18333	40
11.19167	43
11.20000	46
11.20833	50
11.21667	54
11.22500	58
11.23333	62
11.24167	67
11.25000	71
11.25833	74
11.26667	78
11.27500	82
11.28333	86
11.29167	89
11.30000	93
11.30833	96
11.31667	98
11.32500	100
11.33333	102
11.34167	103
11.35000	104
11.35833	104
11.36667	103
11.37500	102
11.38333	101
11.39167	99
11.40000	97
11.40833	95
11.41667	92
11.42500	89
11.43333	85
11.44167	81
11.45000	77
11.45833	73
11.46667	69
11.47500	65
11.48333	61
11.49167	57
11.50000	53
11.50833	49
11.51667	46
11.52500	42
11.53333	40
11.54167	37
11.55000	34
11.55833	32
11.56667	30
11.57500	28
11.58333	26
11.59167	24
11.60000	23
11.60833	22
11.61667	20
11.62500	19
11.63333	18
11.64167	17
11.65000	16
11.65833	16
11.66667	16
11.67500	16
11.68333	15
11.69167	15
11.70000	15
11.70833	15
11.71667	14
11.72500	14
11.73333	14
11.74167	13
11.75000	13
11.75833	12
11.76667	12
11.77500	11
11.78333	10
11.79167	9
11.80000	8
11.80833	7
11.81667	6
11.82500	5
11.83333	4
11.84167	2
11.85000	1
11.85833	-1
11.86667	-3
11.87500	-5
11.88333	-7
11.89167	-10
11.90000	-12
11.90833	-14
11.91667	-17
11.92500	-19
11.93333	-21
11.94167	-23
11.95000	-25
11.95833	-26
11.96667	-27
11.97500	-28
11.98333	-29
11.99167	-29
12.00000	-30
12.00833	-30
12.01667	-30
12.02500	-30
12.03333	-29
12.04167	-29
12.05000	-28
12.05833	-27
12.06667	-26
12.07500	-25
12.08333	-24
12.09167	-23
12.10000	-22
12.10833	-21
12.11667	-21
12.12500	-20
12.13333	-20
12.14167	-19
12.15000	-19
12.15833	-18
12.16667	-18
12.17500	-18
12.18333	-18
12.19167	-18
12.20000	-18
12.20833	-17
12.21667	-18
12.22500	-18
12.23333	-19
12.24167	-19
12.25000	-20
12.25833	-20
12.26667	-21
12.27500	-21
12.28333	-23
12.29167	-25
12.30000	-27
12.30833	-28
12.31667	-29
12.32500	-30
12.33333	-32
12.34167	-33
12.35000	-35
12.35833	-38
12.36667	-40
12.37500	-42
12.38333	-43
12.39167	-45
12.40000	-47
12.40833	-49
12.41667	-51
12.42500	-52
12.43333	-53
12.44167	-55
12.45000	-57
12.45833	-59
12.46667	-60
12.47500	-61
12.48333	-62
12.49167	-63
12.50000	-64
12.50833	-65
12.51667	-66
12.52500	-67
12.53333	-67
12.54167	-68
12.55000	-68
12.55833	-68
12.56667	-68
12.57500	-68
12.58333	-68
12.59167	-68
12.60000	-68
12.60833	-67
12.61667	-67
12.62500	-67
12.63333	-66
12.64167	-66
12.65000	-66
12.65833	-65
12.66667	-64
12.67500	-64
12.68333	-63
12.69167	-63
12.70000	-62
12.70833	-61
12.71667	-60
12.72500	-59
12.73333	-58
12.74167	-57
12.75000	-56
12.75833	-55
12.76667	-54
12.77500	-53
12.78333	-52
12.79167	-51
12.80000	-51
12.80833	-50
12.81667	-49
12.82500	-49
12.83333	-48
12.84167	-47
12.85000	-46
12.85833	-45
12.86667	-44
12.87500	-43
12.88333	-41
12.89167	-39
12.90000	-37
12.90833	-36
12.91667	-34
12.92500	-32
12.93333	-31
12.94167	-29
12.95000	-26
12.95833	-24
12.96667	-21
12.97500	-18
12.98333	-15
12.99167	-12
13.00000	-10
13.00833	-7
13.01667	-5
13.02500	-3
13.03333	-1
13.04167	1
13.05000	2
13.05833	4
13.06667	5
13.07500	6
13.08333	7
13.09167	8
13.10000	8
13.10833	8
13.11667	8
13.12500	7
13.13333	7
13.14167	6
13.15000	5
13.15833	4
13.16667	3
13.17500	2
13.18333	0
13.19167	-1
13.20000	-2
13.20833	-4
13.21667	-5
13.22500	-7
13.23333	-8
13.24167	-10
13.25000	-11
13.25833	-12
13.26667	-12
13.27500	-13
13.28333	-13
13.29167	-14
13.30000	-14
13.30833	-14
13.31667	-14
13.32500	-15
13.33333	-15
13.34167	-15
13.35000	-15
13.35833	-14
13.36667	-13
13.37500	-12
13.38333	-12
13.39167	-11
13.40000	-10
13.40833	-9
13.41667	-9
13.42500	-8
13.43333	-7
13.44167	-6
13.45000	-5
13.45833	-5
13.46667	-4
13.47500	-3
13.48333	-3
13.49167	-1
13.50000	-0
13.50833	1
13.51667	2
13.52500	4
13.53333	6
13.54167	8
13.55000	10
13.55833	12
13.56667	15
13.57500	18
13.58333	20
13.59167	24
13.60000	27
13.60833	31
13.61667	36
13.62500	41
13.63333	46
13.64167	52
13.65000	58
13.65833	64
13.66667	70
13.67500	77
13.68333	83
13.69167	89
13.70000	96
13.70833	103
13.71667	110
13.72500	117
13.73333	124
13.74167	131
13.75000	137
13.75833	143
13.76667	150
13.77500	156
13.78333	162
13.79167	168
13.80000	174
13.80833	181
13.81667	188
13.82500	195
13.83333	202
13.84167	210
13.85000	218
13.85833	227
13.86667	236
13.87500	245
13.88333	255
13.89167	265
13.90000	275
13.90833	284
13.91667	293
13.92500	302
13.93333	311
13.94167	318
13.95000	326
13.95833	332
13.96667	337
13.97500	341
13.98333	343
13.99167	344
14.00000	344
14.00833	343
14.01667	341
14.02500	337
14.03333	333
14.04167	328
14.05000	321
14.05833	314
14.06667	306
14.07500	298
14.08333	290
14.09167	282
14.10000	274
14.10833	265
14.11667	256
14.12500	247
14.13333	239
14.14167	231
14.15000	224
14.15833	217
14.16667	211
14.17500	205
14.18333	200
14.19167	195
14.20000	191
14.20833	187
14.21667	183
14.22500	180
14.23333	177
14.24167	175
14.25000	173
14.25833	172
14.26667	171
14.27500	170
14.28333	169
14.29167	168
14.30000	167
14.30833	167
14.31667	167
14.32500	167
14.33333	167
14.34167	168
14.35000	169
14.35833	170
14.36667	171
14.37500	172
14.38333	174
14.39167	175
14.40000	176
14.40833	178
14.41667	179
14.42500	180
14.43333	181
14.44167	183
14.45000	184
14.45833	185
14.46667	186
14.47500	188
14.48333	189
14.49167	190
14.50000	190
14.50833	191
14.51667	191
14.52500	192
14.53333	192
14.54167	192
14.55000	191
14.55833	191
14.56667	191
14.57500	191
14.58333	190
14.59167	190
14.60000	189
14.60833	188
14.61667	187
14.62500	186
14.63333	186
14.64167	185
14.65000	184
14.65833	183
14.66667	182
14.67500	181
14.68333	180
14.69167	179
14.70000	178
14.70833	177
14.71667	175
14.72500	174
14.73333	172
14.74167	171
14.75000	170
14.75833	169
14.76667	168
14.77500	167
14.78333	165
14.79167	164
14.80000	163
14.80833	163
14.81667	162
14.82500	161
14.83333	160
14.84167	159
14.85000	158
14.85833	157
14.86667	156
14.87500	155
14.88333	154
14.89167	153
14.90000	152
14.90833	151
14.91667	151
14.92500	151
14.93333	150
14.94167	149
14.95000	149
14.95833	148
14.96667	148
14.97500	149
14.98333	149
14.99167	150
15.00000	150
15.00833	151
15.01667	152
15.02500	153
15.03333	154
15.04167	156
15.05000	158
15.05833	161
15.06667	165
15.07500	168
15.08333	172
15.09167	177
15.10000	182
15.10833	188
15.11667	194
15.12500	201
15.13333	209
15.14167	217
15.15000	226
15.15833	236
15.16667	245
15.17500	255
15.18333	265
15.19167	276
15.20000	286
15.20833	296
15.21667	306
15.22500	315
15.23333	323
15.24167	331
15.25000	338
15.25833	344
15.26667	349
15.27500	352
15.28333	355
15.29167	356
15.30000	355
15.30833	354
15.31667	350
15.32500	346
15.33333	340
15.34167	332
15.35000	323
15.35833	314
15.36667	304
15.37500	293
15.38333	282
15.39167	270
15.40000	258
15.40833	246
15.41667	234
15.42500	222
15.43333	210
15.44167	198
15.45000	186
15.45833	175
15.46667	165
15.47500	154
15.48333	144
15.49167	135
15.50000	126
15.50833	117
15.51667	109
15.52500	101
15.53333	95
15.54167	88
15.55000	82
15.55833	76
15.56667	70
15.57500	66
15.58333	62
15.59167	57
15.60000	53
15.60833	49
15.61667	46
15.62500	43
15.63333	40
15.64167	37
15.65000	35
15.65833	33
15.66667	31
15.67500	29
15.68333	28
15.69167	26
15.70000	25
15.70833	24
15.71667	23
15.72500	23
15.73333	22
15.74167	21
15.75000	21
15.75833	21
15.76667	20
15.77500	20
15.78333	20
15.79167	19
15.80000	19
15.80833	19
15.81667	19
15.82500	19
15.83333	19
15.84167	19
15.85000	19
15.85833	19
15.86667	20
15.87500	20
15.88333	21
15.89167	22
15.90000	24
15.90833	25
15.91667	27
15.92500	30
15.93333	32
15.94167	35
15.95000	39
15.95833	43
15.96667	48
15.97500	54
15.98333	60
15.99167	67
16.00000	74
16.00833	83
16.01667	91
16.02500	100
16.03333	110
16.04167	120
16.05000	131
16.05833	142
16.06667	153
16.07500	164
16.08333	174
16.09167	184
16.10000	193
16.10833	202
16.11667	210
16.12500	218
16.13333	225
16.14167	231
16.15000	236
16.15833	239
16.16667	242
16.17500	243
16.18333	244
16.19167	243
16.20000	241
16.20833	239
16.21667	236
16.22500	232
16.23333	228
16.24167	224
16.25000	219
16.25833	214
16.26667	209
16.27500	204
16.28333	200
16.29167	196
16.30000	192
16.30833	189
16.31667	187
16.32500	186
16.33333	185
16.34167	185
16.35000	186
16.35833	189
16.36667	192
16.37500	197
16.38333	203
16.39167	210
16.40000	218
16.40833	227
16.41667	238
16.42500	250
16.43333	264
16.44167	279
16.45000	296
16.45833	314
16.46667	333
16.47500	353
16.48333	376
16.49167	400
16.50000	425
16.50833	451
16.51667	479
16.52500	508
16.53333	538
16.54167	568
16.55000	600
16.55833	631
16.56667	662
16.57500	692
16.58333	722
16.59167	751
16.60000	778
16.60833	803
16.61667	827
16.62500	848
16.63333	866
16.64167	882
16.65000	894
16.65833	902
16.66667	908
16.67500	910
16.68333	908
16.69167	903
16.70000	895
16.70833	884
16.71667	870
16.72500	852
16.73333	832
16.74167	810
16.75000	785
16.75833	759
16.76667	732
16.77500	703
16.78333	674
16.79167	644
16.80000	615
16.80833	585
16.81667	556
16.82500	527
16.83333	498
16.84167	470
16.85000	443
16.85833	417
16.86667	392
16.87500	368
16.88333	345
16.89167	324
16.90000	304
16.90833	286
16.91667	268
16.92500	251
16.93333	236
16.94167	222
16.95000	208
16.95833	196
16.96667	185
16.97500	174
16.98333	164
16.99167	154
17.00000	145
17.00833	137
17.01667	130
17.02500	123
17.03333	117
17.04167	111
17.05000	105
17.05833	99
17.06667	94
17.07500	90
17.08333	85
17.09167	81
17.10000	77
17.10833	74
17.11667	70
17.12500	67
17.13333	64
17.14167	61
17.15000	58
17.15833	55
17.16667	53
17.17500	50
17.18333	48
17.19167	46
17.20000	44
17.20833	42
17.21667	41
17.22500	39
17.23333	38
17.24167	36
17.25000	35
17.25833	34
17.26667	34
17.27500	33
17.28333	32
17.29167	31
17.30000	29
17.30833	28
17.31667	27
17.32500	27
17.33333	26
17.34167	25
17.35000	25
17.35833	25
17.36667	24
17.37500	24
17.38333	24
17.39167	24
17.40000	24
17.40833	24
17.41667	23
17.42500	23
17.43333	24
17.44167	24
17.45000	25
17.45833	25
17.46667	26
17.47500	26
17.48333	27
17.49167	28
17.50000	29
17.50833	30
17.51667	31
17.52500	32
17.53333	34
17.54167	35
17.55000	36
17.55833	38
17.56667	39
17.57500	41
17.58333	43
17.59167	45
17.60000	47
17.60833	50
17.61667	54
17.62500	57
17.63333	60
17.64167	64
17.65000	68
17.65833	72
17.66667	77
17.67500	82
17.68333	88
17.69167	94
17.70000	101
17.70833	108
17.71667	116
17.72500	125
17.73333	135
17.74167	145
17.75000	157
17.75833	170
17.76667	184
17.77500	199
17.78333	216
17.79167	235
17.80000	256
17.80833	278
17.81667	304
17.82500	332
17.83333	363
17.84167	396
17.85000	433
17.85833	474
17.86667	519
17.87500	568
17.88333	622
17.89167	681
17.90000	745
17.90833	815
17.91667	891
17.92500	973
17.93333	1062
17.94167	1156
17.95000	1258
17.95833	1365
17.96667	1479
17.97500	1599
17.98333	1723
17.99167	1852
18.00000	1986
18.00833	2122
18.01667	2261
18.02500	2402
18.03333	2542
18.04167	2680
18.05000	2817
18.05833	2949
18.06667	3076
18.07500	3196
18.08333	3309
18.09167	3412
18.10000	3504
18.10833	3585
18.11667	3654
18.12500	3709
18.13333	3751
18.14167	3778
18.15000	3791
18.15833	3789
18.16667	3773
18.17500	3743
18.18333	3699
18.19167	3644
18.20000	3576
18.20833	3498
18.21667	3409
18.22500	3312
18.23333	3206
18.24167	3095
18.25000	2978
18.25833	2858
18.26667	2734
18.27500	2609
18.28333	2483
18.29167	2358
18.30000	2234
18.30833	2112
18.31667	1992
18.32500	1876
18.33333	1764
18.34167	1656
18.35000	1553
18.35833	1455
18.36667	1362
18.37500	1274
18.38333	1190
18.39167	1112
18.40000	1038
18.40833	970
18.41667	906
18.42500	847
18.43333	792
18.44167	741
18.45000	695
18.45833	652
18.46667	612
18.47500	575
18.48333	541
18.49167	510
18.50000	482
18.50833	456
18.51667	432
18.52500	411
18.53333	392
18.54167	374
18.55000	358
18.55833	344
18.56667	330
18.57500	318
18.58333	307
18.59167	298
18.60000	290
18.60833	283
18.61667	277
18.62500	271
18.63333	267
18.64167	264
18.65000	262
18.65833	261
18.66667	261
18.67500	261
18.68333	262
18.69167	264
18.70000	266
18.70833	269
18.71667	273
18.72500	278
18.73333	284
18.74167	291
18.75000	298
18.75833	306
18.76667	315
18.77500	324
18.78333	334
18.79167	344
18.80000	354
18.80833	364
18.81667	374
18.82500	385
18.83333	395
18.84167	405
18.85000	415
18.85833	425
18.86667	434
18.87500	443
18.88333	451
18.89167	458
18.90000	464
18.90833	470
18.91667	474
18.92500	478
18.93333	480
18.94167	481
18.95000	482
18.95833	482
18.96667	480
18.97500	478
18.98333	474
18.99167	470
19.00000	464
19.00833	458
19.01667	451
19.02500	443
19.03333	434
19.04167	426
19.05000	417
19.05833	407
19.06667	398
19.07500	388
19.08333	378
19.09167	368
19.10000	358
19.10833	349
19.11667	339
19.12500	330
19.13333	321
19.14167	312
19.15000	304
19.15833	296
19.16667	289
19.17500	281
19.18333	274
19.19167	268
19.20000	262
19.20833	256
19.21667	250
19.22500	245
19.23333	241
19.24167	237
19.25000	233
19.25833	230
19.26667	227
19.27500	224
19.28333	221
19.29167	219
19.30000	217
19.30833	215
19.31667	214
19.32500	213
19.33333	212
19.34167	211
19.35000	211
19.35833	211
19.36667	211
19.37500	211
19.38333	211
19.39167	212
19.40000	213
19.40833	214
19.41667	214
19.42500	215
19.43333	215
19.44167	216
19.45000	217
19.45833	218
19.46667	219
19.47500	220
19.48333	221
19.49167	221
19.50000	222
19.50833	223
19.51667	225
19.52500	225
19.53333	226
19.54167	227
19.55000	228
19.55833	229
19.56667	229
19.57500	230
19.58333	231
19.59167	231
19.60000	232
19.60833	232
19.61667	233
19.62500	233
19.63333	234
19.64167	234
19.65000	235
19.65833	235
19.66667	236
19.67500	236
19.68333	237
19.69167	237
19.70000	238
19.70833	239
19.71667	239
19.72500	240
19.73333	240
19.74167	240
19.75000	241
19.75833	241
19.76667	242
19.77500	242
19.78333	243
19.79167	243
19.80000	244
19.80833	244
19.81667	245
19.82500	245
19.83333	246
19.84167	247
19.85000	247
19.85833	248
19.86667	248
19.87500	248
19.88333	249
19.89167	250
19.90000	250
19.90833	251
19.91667	251
19.92500	252
19.93333	252
19.94167	253
19.95000	253
19.95833	254
19.96667	254
19.97500	254
19.98333	255
19.99167	256
20.00000	256
20.00833	256
20.01667	257
20.02500	257
20.03333	258
20.04167	259
20.05000	260
20.05833	261
20.06667	261
20.07500	262
20.08333	263
20.09167	263
20.10000	264
20.10833	266
20.11667	267
20.12500	268
20.13333	269
20.14167	270
20.15000	270
20.15833	271
20.16667	272
20.17500	273
20.18333	275
20.19167	276
20.20000	277
20.20833	278
20.21667	279
20.22500	280
20.23333	282
20.24167	283
20.25000	284
20.25833	285
20.26667	287
20.27500	289
20.28333	290
20.29167	292
20.30000	294
20.30833	296
20.31667	298
20.32500	300
20.33333	302
20.34167	304
20.35000	306
20.35833	308
20.36667	310
20.37500	313
20.38333	315
20.39167	318
20.40000	320
20.40833	324
20.41667	327
20.42500	330
20.43333	334
20.44167	338
20.45000	342
20.45833	347
20.46667	352
20.47500	356
20.48333	361
20.49167	366
20.50000	372
20.50833	378
20.51667	385
20.52500	392
20.53333	400
20.54167	409
20.55000	417
20.55833	427
20.56667	436
20.57500	447
20.58333	459
20.59167	471
20.60000	484
20.60833	499
20.61667	514
20.62500	529
20.63333	546
20.64167	564
20.65000	584
20.65833	604
20.66667	626
20.67500	650
20.68333	675
20.69167	701
20.70000	728
20.70833	757
20.71667	787
20.72500	819
20.73333	852
20.74167	886
20.75000	921
20.75833	957
20.76667	994
20.77500	1032
20.78333	1071
20.79167	1110
20.80000	1149
20.80833	1189
20.81667	1230
20.82500	1270
20.83333	1310
20.84167	1350
20.85000	1389
20.85833	1428
20.86667	1466
20.87500	1503
20.88333	1539
20.89167	1574
20.90000	1608
20.90833	1642
20.91667	1674
20.92500	1706
20.93333	1737
20.94167	1767
20.95000	1796
20.95833	1824
20.96667	1851
20.97500	1879
20.98333	1906
20.99167	1934
21.00000	1961
21.00833	1989
21.01667	2017
21.02500	2046
21.03333	2077
21.04167	2109
21.05000	2142
21.05833	2179
21.06667	2217
21.07500	2259
21.08333	2303
21.09167	2352
21.10000	2405
21.10833	2463
21.11667	2526
21.12500	2594
21.13333	2669
21.14167	2752
21.15000	2842
21.15833	2940
21.16667	3048
21.17500	3165
21.18333	3292
21.19167	3431
21.20000	3581
21.20833	3743
21.21667	3918
21.22500	4108
21.23333	4311
21.24167	4529
21.25000	4761
21.25833	5009
21.26667	5272
21.27500	5549
21.28333	5842
21.29167	6149
21.30000	6470
21.30833	6805
21.31667	7151
21.32500	7509
21.33333	7876
21.34167	8253
21.35000	8636
21.35833	9024
21.36667	9415
21.37500	9807
21.38333	10199
21.39167	10586
21.40000	10968
21.40833	11340
21.41667	11702
21.42500	12051
21.43333	12383
21.44167	12697
21.45000	12990
21.45833	13261
21.46667	13507
21.47500	13727
21.48333	13919
21.49167	14082
21.50000	14214
21.50833	14315
21.51667	14384
21.52500	14420
21.53333	14425
21.54167	14397
21.55000	14339
21.55833	14249
21.56667	14129
21.57500	13981
21.58333	13804
21.59167	13602
21.60000	13375
21.60833	13126
21.61667	12856
21.62500	12568
21.63333	12263
21.64167	11943
21.65000	11611
21.65833	11268
21.66667	10916
21.67500	10559
21.68333	10197
21.69167	9832
21.70000	9466
21.70833	9101
21.71667	8738
21.72500	8379
21.73333	8024
21.74167	7676
21.75000	7334
21.75833	7000
21.76667	6676
21.77500	6361
21.78333	6057
21.79167	5762
21.80000	5478
21.80833	5206
21.81667	4944
21.82500	4694
21.83333	4455
21.84167	4227
21.85000	4009
21.85833	3803
21.86667	3606
21.87500	3420
21.88333	3243
21.89167	3076
21.90000	2918
21.90833	2769
21.91667	2628
21.92500	2496
21.93333	2371
21.94167	2254
21.95000	2144
21.95833	2040
21.96667	1943
21.97500	1852
21.98333	1766
21.99167	1685
22.00000	1609
22.00833	1538
22.01667	1472
22.02500	1410
22.03333	1352
22.04167	1297
22.05000	1246
22.05833	1199
22.06667	1155
22.07500	1114
22.08333	1076
22.09167	1041
22.10000	1008
22.10833	979
22.11667	951
22.12500	925
22.13333	902
22.14167	880
22.15000	860
22.15833	842
22.16667	825
22.17500	811
22.18333	797
22.19167	785
22.20000	774
22.20833	764
22.21667	755
22.22500	747
22.23333	740
22.24167	734
22.25000	729
22.25833	724
22.26667	720
22.27500	716
22.28333	712
22.29167	709
22.30000	707
22.30833	704
22.31667	702
22.32500	700
22.33333	698
22.34167	696
22.35000	694
22.35833	691
22.36667	689
22.37500	686
22.38333	683
22.39167	681
22.40000	678
22.40833	676
22.41667	672
22.42500	669
22.43333	665
22.44167	661
22.45000	657
22.45833	652
22.46667	647
22.47500	642
22.48333	636
22.49167	630
22.50000	623
22.50833	617
22.51667	611
22.52500	604
22.53333	597
22.54167	590
22.55000	582
22.55833	574
22.56667	566
22.57500	558
22.58333	550
22.59167	543
22.60000	535
22.60833	527
22.61667	519
22.62500	510
22.63333	502
22.64167	494
22.65000	487
22.65833	479
22.66667	471
22.67500	464
22.68333	456
22.69167	449
22.70000	441
22.70833	434
22.71667	428
22.72500	421
22.73333	415
22.74167	409
22.75000	404
22.75833	399
22.76667	394
22.77500	390
22.78333	386
22.79167	382
22.80000	379
22.80833	376
22.81667	374
22.82500	372
22.83333	371
22.84167	370
22.85000	369
22.85833	368
22.86667	368
22.87500	367
22.88333	367
22.89167	368
22.90000	369
22.90833	370
22.91667	371
22.92500	372
22.93333	374
22.94167	376
22.95000	378
22.95833	381
22.96667	383
22.97500	385
22.98333	388
22.99167	391
23.00000	394
23.00833	397
23.01667	400
23.02500	403
23.03333	406
23.04167	408
23.05000	411
23.05833	414
23.06667	417
23.07500	420
23.08333	422
23.09167	425
23.10000	427
23.10833	429
23.11667	431
23.12500	433
23.13333	435
23.14167	437
23.15000	438
23.15833	440
23.16667	441
23.17500	442
23.18333	443
23.19167	444
23.20000	445
23.20833	445
23.21667	446
23.22500	446
23.23333	445
23.24167	446
23.25000	446
23.25833	445
23.26667	445
23.27500	445
23.28333	444
23.29167	444
23.30000	443
23.30833	442
23.31667	441
23.32500	441
23.33333	440
23.34167	439
23.35000	438
23.35833	437
23.36667	435
23.37500	434
23.38333	433
23.39167	433
23.40000	432
23.40833	431
23.41667	430
23.42500	430
23.43333	429
23.44167	428
23.45000	428
23.45833	427
23.46667	427
23.47500	427
23.48333	426
23.49167	426
23.50000	425
23.50833	425
23.51667	425
23.52500	425
23.53333	425
23.54167	424
23.55000	424
23.55833	424
23.56667	423
23.57500	423
23.58333	422
23.59167	422
23.60000	421
23.60833	420
23.61667	420
23.62500	419
23.63333	419
23.64167	419
23.65000	418
23.65833	417
23.66667	417
23.67500	417
23.68333	416
23.69167	416
23.70000	416
23.70833	416
23.71667	417
23.72500	417
23.73333	417
23.74167	417
23.75000	418
23.75833	418
23.76667	418
23.77500	417
23.78333	417
23.79167	417
23.80000	417
23.80833	417
23.81667	417
23.82500	416
23.83333	416
23.84167	415
23.85000	415
23.85833	415
23.86667	415
23.87500	414
23.88333	414
23.89167	414
23.90000	415
23.90833	415
23.91667	415
23.92500	415
23.93333	415
23.94167	415
23.95000	416
23.95833	416
23.96667	416
23.97500	416
23.98333	415
23.99167	415
24.00000	415
24.00833	415
24.01667	415
24.02500	415
24.03333	414
24.04167	413
24.05000	412
24.05833	412
24.06667	411
24.07500	411
24.08333	410
24.09167	410
24.10000	410
24.10833	410
24.11667	409
24.12500	409
24.13333	409
24.14167	408
24.15000	407
24.15833	406
24.16667	405
24.17500	403
24.18333	401
24.19167	399
24.20000	397
24.20833	395
24.21667	394
24.22500	392
24.23333	390
24.24167	388
24.25000	386
24.25833	384
24.26667	382
24.27500	381
24.28333	379
24.29167	377
24.30000	375
24.30833	373
24.31667	371
24.32500	369
24.33333	367
24.34167	365
24.35000	363
24.35833	360
24.36667	358
24.37500	355
24.38333	353
24.39167	351
24.40000	348
24.40833	346
24.41667	344
24.42500	342
24.43333	340
24.44167	338
24.45000	336
24.45833	335
24.46667	334
24.47500	333
24.48333	332
24.49167	331
24.50000	330
24.50833	329
24.51667	328
24.52500	328
24.53333	327
24.54167	326
24.55000	325
24.55833	324
24.56667	324
24.57500	323
24.58333	322
24.59167	322
24.60000	321
24.60833	319
24.61667	319
24.62500	318
24.63333	318
24.64167	317
24.65000	317
24.65833	317
24.66667	317
24.67500	317
24.68333	317
24.69167	317
24.70000	317
24.70833	317
24.71667	318
24.72500	318
24.73333	318
24.74167	319
24.75000	319
24.75833	319
24.76667	319
24.77500	319
24.78333	320
24.79167	320
24.80000	320
24.80833	320
24.81667	319
24.82500	319
24.83333	319
24.84167	318
24.85000	318
24.85833	318
24.86667	317
24.87500	317
24.88333	317
24.89167	316
24.90000	316
24.90833	316
24.91667	316
24.92500	316
24.93333	316
24.94167	316
24.95000	317
24.95833	317
24.96667	317
24.97500	316
24.98333	316
24.99167	316
25.00000	316
25.00833	316
25.01667	316
25.02500	316
25.03333	316
25.04167	315
25.05000	314
25.05833	314
25.06667	313
25.07500	312
25.08333	311
25.09167	311
25.10000	310
25.10833	309
25.11667	309
25.12500	308
25.13333	308
25.14167	308
25.15000	307
25.15833	307
25.16667	307
25.17500	307
25.18333	307
25.19167	307
25.20000	307
25.20833	306
25.21667	306
25.22500	306
25.23333	306
25.24167	306
25.25000	305
25.25833	304
25.26667	304
25.27500	303
25.28333	302
25.29167	302
25.30000	301
25.30833	300
25.31667	300
25.32500	299
25.33333	299
25.34167	298
25.35000	298
25.35833	298
25.36667	298
25.37500	298
25.38333	298
25.39167	298
25.40000	298
25.40833	298
25.41667	298
25.42500	299
25.43333	299
25.44167	299
25.45000	300
25.45833	299
25.46667	299
25.47500	299
25.48333	298
25.49167	297
25.50000	297
25.50833	297
25.51667	297
25.52500	297
25.53333	297
25.54167	298
25.55000	298
25.55833	299
25.56667	299
25.57500	300
25.58333	301
25.59167	302
25.60000	303
25.60833	303
25.61667	303
25.62500	304
25.63333	304
25.64167	305
25.65000	305
25.65833	305
25.66667	305
25.67500	306
25.68333	306
25.69167	306
25.70000	307
25.70833	307
25.71667	307
25.72500	307
25.73333	307
25.74167	307
25.75000	307
25.75833	307
25.76667	307
25.77500	308
25.78333	308
25.79167	309
25.80000	310
25.80833	311
25.81667	312
25.82500	313
25.83333	315
25.84167	315
25.85000	316
25.85833	317
25.86667	318
25.87500	319
25.88333	319
25.89167	320
25.90000	321
25.90833	321
25.91667	322
25.92500	323
25.93333	324
25.94167	325
25.95000	326
25.95833	327
25.96667	329
25.97500	331
25.98333	333
25.99167	335
26.00000	338
26.00833	341
26.01667	343
26.02500	346
26.03333	350
26.04167	353
26.05000	357
26.05833	362
26.06667	366
26.07500	371
26.08333	376
26.09167	381
26.10000	388
26.10833	394
26.11667	401
26.12500	408
26.13333	416
26.14167	424
26.15000	433
26.15833	441
26.16667	451
26.17500	461
26.18333	472
26.19167	483
26.20000	495
26.20833	507
26.21667	521
26.22500	535
26.23333	550
26.24167	565
26.25000	580
26.25833	597
26.26667	614
26.27500	632
26.28333	651
26.29167	670
26.30000	690
26.30833	710
26.31667	731
26.32500	753
26.33333	775
26.34167	797
26.35000	820
26.35833	843
26.36667	865
26.37500	888
26.38333	911
26.39167	933
26.40000	956
26.40833	977
26.41667	999
26.42500	1020
26.43333	1040
26.44167	1059
26.45000	1077
26.45833	1094
26.46667	1110
26.47500	1124
26.48333	1137
26.49167	1148
26.50000	1158
26.50833	1166
26.51667	1173
26.52500	1178
26.53333	1182
26.54167	1183
26.55000	1183
26.55833	1181
26.56667	1178
26.57500	1173
26.58333	1166
26.59167	1158
26.60000	1149
26.60833	1138
26.61667	1125
26.62500	1111
26.63333	1095
26.64167	1078
26.65000	1061
26.65833	1042
26.66667	1022
26.67500	1002
26.68333	981
26.69167	959
26.70000	936
26.70833	913
26.71667	890
26.72500	866
26.73333	843
26.74167	819
26.75000	795
26.75833	771
26.76667	747
26.77500	725
26.78333	702
26.79167	680
26.80000	659
26.80833	637
26.81667	616
26.82500	596
26.83333	577
26.84167	558
26.85000	540
26.85833	523
26.86667	507
26.87500	491
26.88333	475
26.89167	460
26.90000	446
26.90833	433
26.91667	420
26.92500	407
26.93333	395
26.94167	383
26.95000	372
26.95833	362
26.96667	352
26.97500	342
26.98333	333
26.99167	324
27.00000	315
27.00833	307
27.01667	300
27.02500	293
27.03333	286
27.04167	279
27.05000	273
27.05833	267
27.06667	261
27.07500	256
27.08333	251
27.09167	246
27.10000	242
27.10833	237
27.11667	233
27.12500	229
27.13333	226
27.14167	222
27.15000	218
27.15833	215
27.16667	212
27.17500	209
27.18333	206
27.19167	203
27.20000	201
27.20833	198
27.21667	195
27.22500	193
27.23333	190
27.24167	188
27.25000	185
27.25833	183
27.26667	180
27.27500	178
27.28333	176
27.29167	174
27.30000	172
27.30833	169
27.31667	167
27.32500	165
27.33333	163
27.34167	161
27.35000	158
27.35833	156
27.36667	154
27.37500	152
27.38333	150
27.39167	148
27.40000	147
27.40833	145
27.41667	144
27.42500	142
27.43333	141
27.44167	140
27.45000	139
27.45833	138
27.46667	137
27.47500	136
27.48333	134
27.49167	133
27.50000	132
27.50833	132
27.51667	131
27.52500	130
27.53333	130
27.54167	129
27.55000	128
27.55833	127
27.56667	127
27.57500	126
27.58333	125
27.59167	123
27.60000	122
27.60833	121
27.61667	121
27.62500	120
27.63333	118
27.64167	117
27.65000	116
27.65833	115
27.66667	115
27.67500	114
27.68333	113
27.69167	112
27.70000	111
27.70833	110
27.71667	110
27.72500	109
27.73333	108
27.74167	107
27.75000	107
27.75833	106
27.76667	105
27.77500	105
27.78333	104
27.79167	104
27.80000	103
27.80833	103
27.81667	102
27.82500	102
27.83333	101
27.84167	101
27.85000	101
27.85833	100
27.86667	100
27.87500	99
27.88333	99
27.89167	99
27.90000	98
27.90833	97
27.91667	97
27.92500	96
27.93333	95
27.94167	95
27.95000	94
27.95833	94
27.96667	93
27.97500	93
27.98333	92
27.99167	92
28.00000	91

