R.Time (min)	Intensity
0.00000	-13
0.00833	-13
0.01667	0
0.02500	-0
0.03333	-1
0.04167	-1
0.05000	-2
0.05833	-2
0.06667	-3
0.07500	-3
0.08333	-3
0.09167	-3
0.10000	-3
0.10833	-3
0.11667	-3
0.12500	-3
0.13333	-3
0.14167	-4
0.15000	-4
0.15833	-4
0.16667	-5
0.17500	-5
0.18333	-4
0.19167	-5
0.20000	-5
0.20833	-4
0.21667	-4
0.22500	-5
0.23333	-5
0.24167	-5
0.25000	-5
0.25833	-6
0.26667	-6
0.27500	-6
0.28333	-6
0.29167	-7
0.30000	-7
0.30833	-7
0.31667	-8
0.32500	-7
0.33333	-7
0.34167	-7
0.35000	-7
0.35833	-7
0.36667	-8
0.37500	-8
0.38333	-8
0.39167	-8
0.40000	-8
0.40833	-9
0.41667	-9
0.42500	-9
0.43333	-9
0.44167	-9
0.45000	-9
0.45833	-9
0.46667	-10
0.47500	-10
0.48333	-10
0.49167	-10
0.50000	-10
0.50833	-11
0.51667	-11
0.52500	-11
0.53333	-12
0.54167	-12
0.55000	-12
0.55833	-12
0.56667	-12
0.57500	-12
0.58333	-12
0.59167	-12
0.60000	-13
0.60833	-13
0.61667	-13
0.62500	-13
0.63333	-14
0.64167	-14
0.65000	-13
0.65833	-13
0.66667	-14
0.67500	-13
0.68333	-13
0.69167	-14
0.70000	-13
0.70833	-13
0.71667	-13
0.72500	-13
0.73333	-13
0.74167	-14
0.75000	-14
0.75833	-14
0.76667	-14
0.77500	-14
0.78333	-14
0.79167	-14
0.80000	-14
0.80833	-13
0.81667	-13
0.82500	-13
0.83333	-13
0.84167	-13
0.85000	-13
0.85833	-13
0.86667	-13
0.87500	-13
0.88333	-13
0.89167	-14
0.90000	-14
0.90833	-14
0.91667	-14
0.92500	-14
0.93333	-14
0.94167	-14
0.95000	-14
0.95833	-14
0.96667	-14
0.97500	-14
0.98333	-14
0.99167	-14
1.00000	-14
1.00833	-15
1.01667	-15
1.02500	-15
1.03333	-14
1.04167	-14
1.05000	-15
1.05833	-15
1.06667	-15
1.07500	-16
1.08333	-16
1.09167	-16
1.10000	-16
1.10833	-17
1.11667	-17
1.12500	-17
1.13333	-18
1.14167	-18
1.15000	-18
1.15833	-18
1.16667	-18
1.17500	-18
1.18333	-18
1.19167	-19
1.20000	-19
1.20833	-19
1.21667	-19
1.22500	-19
1.23333	-19
1.24167	-19
1.25000	-19
1.25833	-19
1.26667	-19
1.27500	-19
1.28333	-20
1.29167	-20
1.30000	-20
1.30833	-21
1.31667	-21
1.32500	-21
1.33333	-21
1.34167	-21
1.35000	-21
1.35833	-21
1.36667	-22
1.37500	-22
1.38333	-23
1.39167	-23
1.40000	-23
1.40833	-23
1.41667	-23
1.42500	-23
1.43333	-23
1.44167	-23
1.45000	-23
1.45833	-23
1.46667	-23
1.47500	-23
1.48333	-23
1.49167	-23
1.50000	-23
1.50833	-23
1.51667	-23
1.52500	-23
1.53333	-24
1.54167	-24
1.55000	-24
1.55833	-24
1.56667	-24
1.57500	-25
1.58333	-25
1.59167	-24
1.60000	-24
1.60833	-24
1.61667	-24
1.62500	-24
1.63333	-24
1.64167	-24
1.65000	-24
1.65833	-24
1.66667	-24
1.67500	-24
1.68333	-24
1.69167	-24
1.70000	-24
1.70833	-24
1.71667	-25
1.72500	-24
1.73333	-25
1.74167	-25
1.75000	-25
1.75833	-25
1.76667	-25
1.77500	-25
1.78333	-25
1.79167	-26
1.80000	-26
1.80833	-25
1.81667	-25
1.82500	-25
1.83333	-25
1.84167	-25
1.85000	-25
1.85833	-25
1.86667	-24
1.87500	-24
1.88333	-25
1.89167	-25
1.90000	-25
1.90833	-25
1.91667	-25
1.92500	-25
1.93333	-25
1.94167	-24
1.95000	-25
1.95833	-25
1.96667	-25
1.97500	-25
1.98333	-25
1.99167	-25
2.00000	-25
2.00833	-25
2.01667	-25
2.02500	-25
2.03333	-25
2.04167	-24
2.05000	-24
2.05833	-24
2.06667	-24
2.07500	-23
2.08333	-23
2.09167	-23
2.10000	-23
2.10833	-22
2.11667	-22
2.12500	-22
2.13333	-22
2.14167	-22
2.15000	-22
2.15833	-22
2.16667	-21
2.17500	-20
2.18333	-20
2.19167	-19
2.20000	-19
2.20833	-18
2.21667	-17
2.22500	-16
2.23333	-15
2.24167	-14
2.25000	-13
2.25833	-11
2.26667	-10
2.27500	-9
2.28333	-7
2.29167	-5
2.30000	-3
2.30833	-1
2.31667	1
2.32500	3
2.33333	5
2.34167	7
2.35000	10
2.35833	13
2.36667	16
2.37500	19
2.38333	23
2.39167	26
2.40000	30
2.40833	35
2.41667	39
2.42500	44
2.43333	49
2.44167	54
2.45000	59
2.45833	65
2.46667	71
2.47500	78
2.48333	85
2.49167	92
2.50000	99
2.50833	107
2.51667	116
2.52500	124
2.53333	134
2.54167	144
2.55000	155
2.55833	166
2.56667	179
2.57500	192
2.58333	205
2.59167	220
2.60000	235
2.60833	251
2.61667	267
2.62500	285
2.63333	304
2.64167	324
2.65000	344
2.65833	366
2.66667	389
2.67500	413
2.68333	438
2.69167	464
2.70000	492
2.70833	521
2.71667	552
2.72500	585
2.73333	619
2.74167	655
2.75000	693
2.75833	732
2.76667	774
2.77500	819
2.78333	865
2.79167	914
2.80000	966
2.80833	1020
2.81667	1076
2.82500	1136
2.83333	1199
2.84167	1265
2.85000	1334
2.85833	1407
2.86667	1484
2.87500	1564
2.88333	1649
2.89167	1738
2.90000	1830
2.90833	1927
2.91667	2029
2.92500	2135
2.93333	2246
2.94167	2362
2.95000	2483
2.95833	2609
2.96667	2741
2.97500	2877
2.98333	3019
2.99167	3165
3.00000	3317
3.00833	3474
3.01667	3636
3.02500	3803
3.03333	3975
3.04167	4151
3.05000	4332
3.05833	4517
3.06667	4706
3.07500	4898
3.08333	5094
3.09167	5292
3.10000	5493
3.10833	5696
3.11667	5901
3.12500	6106
3.13333	6312
3.14167	6517
3.15000	6722
3.15833	6925
3.16667	7126
3.17500	7323
3.18333	7517
3.19167	7707
3.20000	7892
3.20833	8071
3.21667	8244
3.22500	8410
3.23333	8568
3.24167	8717
3.25000	8858
3.25833	8990
3.26667	9111
3.27500	9221
3.28333	9320
3.29167	9408
3.30000	9484
3.30833	9547
3.31667	9599
3.32500	9637
3.33333	9663
3.34167	9677
3.35000	9677
3.35833	9664
3.36667	9639
3.37500	9600
3.38333	9550
3.39167	9487
3.40000	9412
3.40833	9326
3.41667	9229
3.42500	9121
3.43333	9003
3.44167	8875
3.45000	8737
3.45833	8591
3.46667	8437
3.47500	8276
3.48333	8107
3.49167	7932
3.50000	7752
3.50833	7567
3.51667	7377
3.52500	7184
3.53333	6988
3.54167	6790
3.55000	6589
3.55833	6388
3.56667	6186
3.57500	5984
3.58333	5782
3.59167	5582
3.60000	5383
3.60833	5185
3.61667	4990
3.62500	4797
3.63333	4607
3.64167	4421
3.65000	4238
3.65833	4060
3.66667	3885
3.67500	3715
3.68333	3549
3.69167	3388
3.70000	3232
3.70833	3081
3.71667	2935
3.72500	2794
3.73333	2657
3.74167	2526
3.75000	2400
3.75833	2279
3.76667	2163
3.77500	2052
3.78333	1945
3.79167	1844
3.80000	1746
3.80833	1654
3.81667	1565
3.82500	1482
3.83333	1403
3.84167	1327
3.85000	1256
3.85833	1188
3.86667	1124
3.87500	1064
3.88333	1007
3.89167	953
3.90000	902
3.90833	854
3.91667	810
3.92500	767
3.93333	727
3.94167	690
3.95000	654
3.95833	621
3.96667	589
3.97500	560
3.98333	532
3.99167	506
4.00000	482
4.00833	459
4.01667	438
4.02500	418
4.03333	399
4.04167	381
4.05000	364
4.05833	348
4.06667	333
4.07500	318
4.08333	305
4.09167	292
4.10000	281
4.10833	270
4.11667	259
4.12500	249
4.13333	239
4.14167	230
4.15000	220
4.15833	212
4.16667	203
4.17500	195
4.18333	187
4.19167	180
4.20000	173
4.20833	166
4.21667	159
4.22500	152
4.23333	146
4.24167	140
4.25000	134
4.25833	128
4.26667	122
4.27500	117
4.28333	112
4.29167	107
4.30000	102
4.30833	98
4.31667	93
4.32500	89
4.33333	84
4.34167	80
4.35000	75
4.35833	71
4.36667	67
4.37500	63
4.38333	59
4.39167	56
4.40000	52
4.40833	49
4.41667	46
4.42500	43
4.43333	40
4.44167	38
4.45000	35
4.45833	33
4.46667	31
4.47500	29
4.48333	27
4.49167	25
4.50000	23
4.50833	21
4.51667	20
4.52500	18
4.53333	17
4.54167	15
4.55000	14
4.55833	14
4.56667	13
4.57500	12
4.58333	12
4.59167	11
4.60000	11
4.60833	10
4.61667	10
4.62500	9
4.63333	9
4.64167	9
4.65000	9
4.65833	9
4.66667	9
4.67500	9
4.68333	9
4.69167	9
4.70000	9
4.70833	9
4.71667	10
4.72500	10
4.73333	10
4.74167	10
4.75000	11
4.75833	11
4.76667	12
4.77500	12
4.78333	13
4.79167	14
4.80000	14
4.80833	15
4.81667	16
4.82500	16
4.83333	17
4.84167	18
4.85000	18
4.85833	19
4.86667	20
4.87500	21
4.88333	22
4.89167	23
4.90000	23
4.90833	24
4.91667	25
4.92500	25
4.93333	26
4.94167	27
4.95000	28
4.95833	29
4.96667	29
4.97500	30
4.98333	30
4.99167	30
5.00000	30
5.00833	30
5.01667	31
5.02500	31
5.03333	32
5.04167	32
5.05000	33
5.05833	33
5.06667	33
5.07500	33
5.08333	34
5.09167	34
5.10000	34
5.10833	34
5.11667	33
5.12500	33
5.13333	33
5.14167	32
5.15000	32
5.15833	32
5.16667	32
5.17500	33
5.18333	32
5.19167	32
5.20000	32
5.20833	32
5.21667	31
5.22500	31
5.23333	30
5.24167	29
5.25000	28
5.25833	28
5.26667	27
5.27500	26
5.28333	26
5.29167	25
5.30000	25
5.30833	24
5.31667	24
5.32500	23
5.33333	22
5.34167	21
5.35000	21
5.35833	20
5.36667	19
5.37500	18
5.38333	17
5.39167	16
5.40000	15
5.40833	15
5.41667	14
5.42500	13
5.43333	13
5.44167	12
5.45000	10
5.45833	10
5.46667	9
5.47500	8
5.48333	7
5.49167	6
5.50000	4
5.50833	4
5.51667	3
5.52500	2
5.53333	2
5.54167	2
5.55000	1
5.55833	1
5.56667	0
5.57500	-0
5.58333	-1
5.59167	-2
5.60000	-2
5.60833	-2
5.61667	-3
5.62500	-4
5.63333	-5
5.64167	-5
5.65000	-6
5.65833	-6
5.66667	-6
5.67500	-7
5.68333	-7
5.69167	-7
5.70000	-7
5.70833	-7
5.71667	-8
5.72500	-9
5.73333	-9
5.74167	-9
5.75000	-9
5.75833	-10
5.76667	-10
5.77500	-10
5.78333	-10
5.79167	-10
5.80000	-11
5.80833	-11
5.81667	-12
5.82500	-12
5.83333	-12
5.84167	-13
5.85000	-13
5.85833	-13
5.86667	-13
5.87500	-14
5.88333	-14
5.89167	-14
5.90000	-14
5.90833	-15
5.91667	-15
5.92500	-15
5.93333	-15
5.94167	-15
5.95000	-15
5.95833	-15
5.96667	-15
5.97500	-15
5.98333	-15
5.99167	-15
6.00000	-15
6.00833	-15
6.01667	-15
6.02500	-15
6.03333	-15
6.04167	-15
6.05000	-15
6.05833	-15
6.06667	-16
6.07500	-16
6.08333	-17
6.09167	-17
6.10000	-18
6.10833	-18
6.11667	-18
6.12500	-18
6.13333	-19
6.14167	-19
6.15000	-19
6.15833	-19
6.16667	-20
6.17500	-20
6.18333	-20
6.19167	-20
6.20000	-20
6.20833	-20
6.21667	-20
6.22500	-20
6.23333	-21
6.24167	-20
6.25000	-20
6.25833	-20
6.26667	-20
6.27500	-20
6.28333	-19
6.29167	-19
6.30000	-19
6.30833	-18
6.31667	-18
6.32500	-18
6.33333	-18
6.34167	-18
6.35000	-18
6.35833	-18
6.36667	-17
6.37500	-17
6.38333	-17
6.39167	-17
6.40000	-17
6.40833	-17
6.41667	-17
6.42500	-17
6.43333	-16
6.44167	-17
6.45000	-16
6.45833	-16
6.46667	-16
6.47500	-16
6.48333	-16
6.49167	-16
6.50000	-16
6.50833	-15
6.51667	-15
6.52500	-15
6.53333	-15
6.54167	-16
6.55000	-16
6.55833	-17
6.56667	-17
6.57500	-17
6.58333	-17
6.59167	-17
6.60000	-16
6.60833	-16
6.61667	-16
6.62500	-15
6.63333	-16
6.64167	-15
6.65000	-15
6.65833	-16
6.66667	-16
6.67500	-17
6.68333	-17
6.69167	-17
6.70000	-17
6.70833	-18
6.71667	-18
6.72500	-18
6.73333	-18
6.74167	-19
6.75000	-19
6.75833	-19
6.76667	-20
6.77500	-20
6.78333	-19
6.79167	-20
6.80000	-20
6.80833	-20
6.81667	-20
6.82500	-20
6.83333	-21
6.84167	-21
6.85000	-21
6.85833	-21
6.86667	-21
6.87500	-22
6.88333	-22
6.89167	-22
6.90000	-21
6.90833	-21
6.91667	-20
6.92500	-20
6.93333	-20
6.94167	-19
6.95000	-19
6.95833	-19
6.96667	-19
6.97500	-19
6.98333	-18
6.99167	-18
7.00000	-18
7.00833	-18
7.01667	-18
7.02500	-18
7.03333	-17
7.04167	-17
7.05000	-17
7.05833	-16
7.06667	-15
7.07500	-13
7.08333	-11
7.09167	-8
7.10000	-5
7.10833	0
7.11667	6
7.12500	13
7.13333	21
7.14167	31
7.15000	42
7.15833	55
7.16667	70
7.17500	88
7.18333	107
7.19167	129
7.20000	153
7.20833	179
7.21667	207
7.22500	237
7.23333	267
7.24167	299
7.25000	330
7.25833	361
7.26667	389
7.27500	414
7.28333	435
7.29167	448
7.30000	452
7.30833	447
7.31667	432
7.32500	410
7.33333	383
7.34167	359
7.35000	346
7.35833	357
7.36667	406
7.37500	512
7.38333	692
7.39167	966
7.40000	1352
7.40833	1868
7.41667	2526
7.42500	3336
7.43333	4302
7.44167	5422
7.45000	6685
7.45833	8072
7.46667	9555
7.47500	11098
7.48333	12653
7.49167	14167
7.50000	15580
7.50833	16830
7.51667	17860
7.52500	18621
7.53333	19077
7.54167	19210
7.55000	19021
7.55833	18531
7.56667	17776
7.57500	16805
7.58333	15675
7.59167	14444
7.60000	13166
7.60833	11890
7.61667	10655
7.62500	9494
7.63333	8425
7.64167	7460
7.65000	6602
7.65833	5851
7.66667	5200
7.67500	4641
7.68333	4163
7.69167	3755
7.70000	3407
7.70833	3110
7.71667	2855
7.72500	2635
7.73333	2443
7.74167	2274
7.75000	2125
7.75833	1992
7.76667	1873
7.77500	1764
7.78333	1666
7.79167	1576
7.80000	1493
7.80833	1416
7.81667	1345
7.82500	1278
7.83333	1215
7.84167	1155
7.85000	1098
7.85833	1043
7.86667	989
7.87500	938
7.88333	888
7.89167	840
7.90000	795
7.90833	752
7.91667	712
7.92500	674
7.93333	639
7.94167	606
7.95000	577
7.95833	550
7.96667	526
7.97500	505
7.98333	486
7.99167	470
8.00000	456
8.00833	443
8.01667	433
8.02500	423
8.03333	414
8.04167	405
8.05000	397
8.05833	389
8.06667	380
8.07500	372
8.08333	363
8.09167	354
8.10000	345
8.10833	336
8.11667	327
8.12500	318
8.13333	308
8.14167	300
8.15000	291
8.15833	283
8.16667	274
8.17500	266
8.18333	259
8.19167	253
8.20000	247
8.20833	241
8.21667	236
8.22500	232
8.23333	227
8.24167	223
8.25000	220
8.25833	217
8.26667	215
8.27500	212
8.28333	210
8.29167	209
8.30000	207
8.30833	206
8.31667	205
8.32500	204
8.33333	204
8.34167	203
8.35000	202
8.35833	202
8.36667	201
8.37500	200
8.38333	199
8.39167	199
8.40000	198
8.40833	197
8.41667	196
8.42500	195
8.43333	194
8.44167	193
8.45000	192
8.45833	190
8.46667	189
8.47500	187
8.48333	185
8.49167	184
8.50000	182
8.50833	181
8.51667	180
8.52500	179
8.53333	178
8.54167	176
8.55000	175
8.55833	174
8.56667	173
8.57500	173
8.58333	172
8.59167	173
8.60000	173
8.60833	175
8.61667	176
8.62500	179
8.63333	182
8.64167	186
8.65000	191
8.65833	197
8.66667	203
8.67500	210
8.68333	219
8.69167	228
8.70000	238
8.70833	249
8.71667	260
8.72500	271
8.73333	283
8.74167	294
8.75000	305
8.75833	316
8.76667	325
8.77500	334
8.78333	342
8.79167	349
8.80000	355
8.80833	361
8.81667	365
8.82500	370
8.83333	375
8.84167	380
8.85000	387
8.85833	395
8.86667	405
8.87500	418
8.88333	435
8.89167	457
8.90000	484
8.90833	518
8.91667	559
8.92500	608
8.93333	666
8.94167	733
8.95000	809
8.95833	894
8.96667	989
8.97500	1092
8.98333	1202
8.99167	1317
9.00000	1437
9.00833	1558
9.01667	1679
9.02500	1797
9.03333	1910
9.04167	2015
9.05000	2109
9.05833	2191
9.06667	2260
9.07500	2313
9.08333	2350
9.09167	2371
9.10000	2375
9.10833	2363
9.11667	2335
9.12500	2292
9.13333	2237
9.14167	2169
9.15000	2092
9.15833	2008
9.16667	1917
9.17500	1823
9.18333	1726
9.19167	1629
9.20000	1532
9.20833	1437
9.21667	1346
9.22500	1259
9.23333	1177
9.24167	1100
9.25000	1028
9.25833	963
9.26667	903
9.27500	849
9.28333	801
9.29167	757
9.30000	719
9.30833	685
9.31667	656
9.32500	631
9.33333	609
9.34167	592
9.35000	578
9.35833	567
9.36667	560
9.37500	556
9.38333	556
9.39167	559
9.40000	568
9.40833	582
9.41667	602
9.42500	629
9.43333	665
9.44167	712
9.45000	771
9.45833	846
9.46667	939
9.47500	1055
9.48333	1198
9.49167	1371
9.50000	1580
9.50833	1831
9.51667	2128
9.52500	2477
9.53333	2881
9.54167	3346
9.55000	3873
9.55833	4466
9.56667	5124
9.57500	5845
9.58333	6628
9.59167	7466
9.60000	8353
9.60833	9278
9.61667	10231
9.62500	11199
9.63333	12169
9.64167	13126
9.65000	14055
9.65833	14941
9.66667	15770
9.67500	16530
9.68333	17208
9.69167	17797
9.70000	18288
9.70833	18678
9.71667	18966
9.72500	19152
9.73333	19240
9.74167	19236
9.75000	19148
9.75833	18987
9.76667	18761
9.77500	18485
9.78333	18169
9.79167	17828
9.80000	17472
9.80833	17114
9.81667	16765
9.82500	16433
9.83333	16128
9.84167	15856
9.85000	15626
9.85833	15439
9.86667	15301
9.87500	15212
9.88333	15175
9.89167	15190
9.90000	15258
9.90833	15375
9.91667	15541
9.92500	15754
9.93333	16011
9.94167	16309
9.95000	16646
9.95833	17018
9.96667	17422
9.97500	17854
9.98333	18312
9.99167	18791
10.00000	19289
10.00833	19801
10.01667	20323
10.02500	20850
10.03333	21375
10.04167	21888
10.05000	22372
10.05833	22808
10.06667	23166
10.07500	23412
10.08333	23509
10.09167	23417
10.10000	23105
10.10833	22552
10.11667	21753
10.12500	20720
10.13333	19484
10.14167	18088
10.15000	16585
10.15833	15032
10.16667	13481
10.17500	11977
10.18333	10556
10.19167	9243
10.20000	8055
10.20833	6997
10.21667	6068
10.22500	5262
10.23333	4570
10.24167	3979
10.25000	3478
10.25833	3055
10.26667	2698
10.27500	2398
10.28333	2145
10.29167	1932
10.30000	1750
10.30833	1595
10.31667	1462
10.32500	1348
10.33333	1248
10.34167	1160
10.35000	1083
10.35833	1014
10.36667	951
10.37500	895
10.38333	843
10.39167	795
10.40000	752
10.40833	712
10.41667	675
10.42500	641
10.43333	609
10.44167	580
10.45000	554
10.45833	529
10.46667	507
10.47500	488
10.48333	470
10.49167	455
10.50000	441
10.50833	430
10.51667	421
10.52500	413
10.53333	407
10.54167	403
10.55000	400
10.55833	399
10.56667	398
10.57500	398
10.58333	398
10.59167	398
10.60000	399
10.60833	399
10.61667	398
10.62500	397
10.63333	395
10.64167	391
10.65000	387
10.65833	381
10.66667	373
10.67500	365
10.68333	356
10.69167	346
10.70000	335
10.70833	324
10.71667	312
10.72500	301
10.73333	289
10.74167	278
10.75000	266
10.75833	256
10.76667	246
10.77500	236
10.78333	228
10.79167	220
10.80000	213
10.80833	208
10.81667	203
10.82500	199
10.83333	196
10.84167	194
10.85000	192
10.85833	191
10.86667	190
10.87500	190
10.88333	190
10.89167	189
10.90000	189
10.90833	189
10.91667	188
10.92500	187
10.93333	186
10.94167	184
10.95000	182
10.95833	181
10.96667	178
10.97500	175
10.98333	172
10.99167	168
11.00000	165
11.00833	161
11.01667	158
11.02500	154
11.03333	150
11.04167	147
11.05000	143
11.05833	140
11.06667	138
11.07500	136
11.08333	134
11.09167	133
11.10000	132
11.10833	132
11.11667	132
11.12500	132
11.13333	133
11.14167	134
11.15000	136
11.15833	138
11.16667	141
11.17500	144
11.18333	146
11.19167	149
11.20000	152
11.20833	156
11.21667	161
11.22500	165
11.23333	169
11.24167	173
11.25000	177
11.25833	181
11.26667	185
11.27500	188
11.28333	191
11.29167	194
11.30000	197
11.30833	200
11.31667	202
11.32500	204
11.33333	205
11.34167	206
11.35000	206
11.35833	206
11.36667	206
11.37500	205
11.38333	204
11.39167	202
11.40000	200
11.40833	198
11.41667	196
11.42500	193
11.43333	190
11.44167	187
11.45000	184
11.45833	181
11.46667	179
11.47500	176
11.48333	173
11.49167	171
11.50000	169
11.50833	167
11.51667	165
11.52500	163
11.53333	162
11.54167	160
11.55000	159
11.55833	157
11.56667	156
11.57500	156
11.58333	155
11.59167	155
11.60000	154
11.60833	154
11.61667	154
11.62500	155
11.63333	155
11.64167	156
11.65000	157
11.65833	158
11.66667	160
11.67500	162
11.68333	165
11.69167	168
11.70000	171
11.70833	174
11.71667	178
11.72500	181
11.73333	185
11.74167	189
11.75000	193
11.75833	196
11.76667	199
11.77500	202
11.78333	204
11.79167	205
11.80000	206
11.80833	206
11.81667	206
11.82500	204
11.83333	203
11.84167	200
11.85000	197
11.85833	193
11.86667	188
11.87500	183
11.88333	177
11.89167	171
11.90000	166
11.90833	160
11.91667	154
11.92500	148
11.93333	142
11.94167	137
11.95000	131
11.95833	126
11.96667	121
11.97500	116
11.98333	112
11.99167	108
12.00000	105
12.00833	102
12.01667	99
12.02500	97
12.03333	95
12.04167	93
12.05000	92
12.05833	90
12.06667	89
12.07500	88
12.08333	88
12.09167	87
12.10000	87
12.10833	87
12.11667	87
12.12500	87
12.13333	87
12.14167	87
12.15000	87
12.15833	87
12.16667	87
12.17500	87
12.18333	87
12.19167	87
12.20000	86
12.20833	86
12.21667	85
12.22500	85
12.23333	84
12.24167	84
12.25000	83
12.25833	82
12.26667	81
12.27500	80
12.28333	79
12.29167	78
12.30000	76
12.30833	75
12.31667	74
12.32500	73
12.33333	72
12.34167	70
12.35000	69
12.35833	67
12.36667	65
12.37500	63
12.38333	61
12.39167	60
12.40000	58
12.40833	56
12.41667	55
12.42500	53
12.43333	52
12.44167	51
12.45000	50
12.45833	49
12.46667	48
12.47500	47
12.48333	46
12.49167	45
12.50000	44
12.50833	44
12.51667	43
12.52500	43
12.53333	43
12.54167	42
12.55000	42
12.55833	43
12.56667	43
12.57500	43
12.58333	43
12.59167	44
12.60000	44
12.60833	45
12.61667	45
12.62500	45
12.63333	46
12.64167	47
12.65000	48
12.65833	49
12.66667	49
12.67500	50
12.68333	51
12.69167	52
12.70000	53
12.70833	54
12.71667	54
12.72500	55
12.73333	56
12.74167	57
12.75000	58
12.75833	59
12.76667	59
12.77500	59
12.78333	60
12.79167	60
12.80000	61
12.80833	62
12.81667	62
12.82500	63
12.83333	63
12.84167	64
12.85000	65
12.85833	66
12.86667	66
12.87500	67
12.88333	68
12.89167	69
12.90000	70
12.90833	70
12.91667	71
12.92500	72
12.93333	74
12.94167	75
12.95000	76
12.95833	77
12.96667	78
12.97500	79
12.98333	81
12.99167	82
13.00000	84
13.00833	86
13.01667	88
13.02500	89
13.03333	91
13.04167	92
13.05000	93
13.05833	94
13.06667	94
13.07500	95
13.08333	96
13.09167	96
13.10000	96
13.10833	96
13.11667	96
13.12500	96
13.13333	96
13.14167	96
13.15000	95
13.15833	95
13.16667	94
13.17500	94
13.18333	93
13.19167	93
13.20000	92
13.20833	91
13.21667	91
13.22500	90
13.23333	89
13.24167	89
13.25000	89
13.25833	89
13.26667	88
13.27500	88
13.28333	88
13.29167	88
13.30000	88
13.30833	88
13.31667	89
13.32500	90
13.33333	90
13.34167	91
13.35000	91
13.35833	92
13.36667	92
13.37500	93
13.38333	94
13.39167	95
13.40000	96
13.40833	97
13.41667	98
13.42500	99
13.43333	100
13.44167	100
13.45000	102
13.45833	103
13.46667	104
13.47500	106
13.48333	108
13.49167	109
13.50000	110
13.50833	112
13.51667	114
13.52500	117
13.53333	119
13.54167	123
13.55000	126
13.55833	130
13.56667	135
13.57500	140
13.58333	145
13.59167	151
13.60000	158
13.60833	165
13.61667	173
13.62500	182
13.63333	191
13.64167	201
13.65000	211
13.65833	222
13.66667	233
13.67500	244
13.68333	256
13.69167	267
13.70000	278
13.70833	288
13.71667	298
13.72500	307
13.73333	316
13.74167	324
13.75000	332
13.75833	339
13.76667	345
13.77500	351
13.78333	356
13.79167	360
13.80000	364
13.80833	368
13.81667	371
13.82500	375
13.83333	378
13.84167	382
13.85000	386
13.85833	390
13.86667	394
13.87500	399
13.88333	404
13.89167	409
13.90000	414
13.90833	419
13.91667	425
13.92500	430
13.93333	434
13.94167	439
13.95000	443
13.95833	446
13.96667	448
13.97500	449
13.98333	450
13.99167	449
14.00000	448
14.00833	445
14.01667	442
14.02500	437
14.03333	431
14.04167	425
14.05000	417
14.05833	409
14.06667	401
14.07500	392
14.08333	383
14.09167	374
14.10000	366
14.10833	357
14.11667	348
14.12500	339
14.13333	331
14.14167	323
14.15000	316
14.15833	309
14.16667	302
14.17500	296
14.18333	290
14.19167	285
14.20000	280
14.20833	277
14.21667	273
14.22500	270
14.23333	267
14.24167	265
14.25000	263
14.25833	261
14.26667	260
14.27500	259
14.28333	258
14.29167	258
14.30000	258
14.30833	258
14.31667	258
14.32500	259
14.33333	260
14.34167	260
14.35000	261
14.35833	262
14.36667	263
14.37500	264
14.38333	266
14.39167	267
14.40000	268
14.40833	270
14.41667	271
14.42500	272
14.43333	274
14.44167	275
14.45000	277
14.45833	278
14.46667	279
14.47500	281
14.48333	282
14.49167	283
14.50000	284
14.50833	285
14.51667	286
14.52500	286
14.53333	287
14.54167	287
14.55000	287
14.55833	287
14.56667	287
14.57500	287
14.58333	287
14.59167	287
14.60000	286
14.60833	286
14.61667	286
14.62500	285
14.63333	285
14.64167	284
14.65000	283
14.65833	282
14.66667	281
14.67500	280
14.68333	279
14.69167	279
14.70000	278
14.70833	277
14.71667	276
14.72500	275
14.73333	274
14.74167	273
14.75000	272
14.75833	271
14.76667	270
14.77500	270
14.78333	269
14.79167	268
14.80000	267
14.80833	267
14.81667	266
14.82500	265
14.83333	265
14.84167	264
14.85000	263
14.85833	263
14.86667	262
14.87500	262
14.88333	262
14.89167	262
14.90000	263
14.90833	263
14.91667	263
14.92500	263
14.93333	264
14.94167	264
14.95000	265
14.95833	266
14.96667	266
14.97500	268
14.98333	269
14.99167	270
15.00000	272
15.00833	274
15.01667	277
15.02500	280
15.03333	283
15.04167	287
15.05000	292
15.05833	297
15.06667	303
15.07500	310
15.08333	318
15.09167	327
15.10000	337
15.10833	348
15.11667	360
15.12500	373
15.13333	387
15.14167	402
15.15000	418
15.15833	434
15.16667	452
15.17500	469
15.18333	488
15.19167	506
15.20000	524
15.20833	542
15.21667	560
15.22500	577
15.23333	593
15.24167	608
15.25000	621
15.25833	632
15.26667	642
15.27500	649
15.28333	654
15.29167	656
15.30000	656
15.30833	654
15.31667	650
15.32500	644
15.33333	635
15.34167	624
15.35000	612
15.35833	598
15.36667	582
15.37500	565
15.38333	548
15.39167	529
15.40000	510
15.40833	491
15.41667	472
15.42500	452
15.43333	432
15.44167	413
15.45000	394
15.45833	376
15.46667	358
15.47500	341
15.48333	325
15.49167	311
15.50000	296
15.50833	283
15.51667	271
15.52500	259
15.53333	248
15.54167	237
15.55000	228
15.55833	219
15.56667	211
15.57500	204
15.58333	198
15.59167	192
15.60000	186
15.60833	181
15.61667	176
15.62500	171
15.63333	167
15.64167	163
15.65000	159
15.65833	156
15.66667	153
15.67500	151
15.68333	148
15.69167	146
15.70000	144
15.70833	143
15.71667	141
15.72500	140
15.73333	140
15.74167	139
15.75000	138
15.75833	137
15.76667	136
15.77500	135
15.78333	135
15.79167	135
15.80000	135
15.80833	135
15.81667	135
15.82500	135
15.83333	135
15.84167	136
15.85000	136
15.85833	136
15.86667	137
15.87500	137
15.88333	139
15.89167	140
15.90000	142
15.90833	144
15.91667	146
15.92500	149
15.93333	153
15.94167	157
15.95000	161
15.95833	167
15.96667	173
15.97500	179
15.98333	186
15.99167	194
16.00000	202
16.00833	211
16.01667	221
16.02500	231
16.03333	242
16.04167	253
16.05000	264
16.05833	276
16.06667	287
16.07500	299
16.08333	310
16.09167	321
16.10000	332
16.10833	342
16.11667	351
16.12500	359
16.13333	366
16.14167	372
16.15000	377
16.15833	380
16.16667	383
16.17500	384
16.18333	384
16.19167	383
16.20000	380
16.20833	377
16.21667	373
16.22500	368
16.23333	363
16.24167	357
16.25000	351
16.25833	345
16.26667	339
16.27500	333
16.28333	327
16.29167	322
16.30000	317
16.30833	313
16.31667	309
16.32500	307
16.33333	306
16.34167	305
16.35000	306
16.35833	308
16.36667	311
16.37500	315
16.38333	321
16.39167	328
16.40000	337
16.40833	347
16.41667	358
16.42500	371
16.43333	386
16.44167	402
16.45000	420
16.45833	439
16.46667	461
16.47500	484
16.48333	509
16.49167	536
16.50000	564
16.50833	594
16.51667	625
16.52500	657
16.53333	690
16.54167	724
16.55000	758
16.55833	793
16.56667	827
16.57500	861
16.58333	894
16.59167	925
16.60000	956
16.60833	984
16.61667	1009
16.62500	1033
16.63333	1053
16.64167	1069
16.65000	1082
16.65833	1091
16.66667	1096
16.67500	1098
16.68333	1096
16.69167	1090
16.70000	1081
16.70833	1068
16.71667	1051
16.72500	1031
16.73333	1008
16.74167	983
16.75000	956
16.75833	926
16.76667	895
16.77500	863
16.78333	830
16.79167	796
16.80000	762
16.80833	728
16.81667	694
16.82500	661
16.83333	628
16.84167	596
16.85000	565
16.85833	536
16.86667	508
16.87500	481
16.88333	455
16.89167	431
16.90000	408
16.90833	387
16.91667	367
16.92500	348
16.93333	331
16.94167	315
16.95000	300
16.95833	287
16.96667	274
16.97500	262
16.98333	251
16.99167	241
17.00000	231
17.00833	222
17.01667	214
17.02500	207
17.03333	200
17.04167	194
17.05000	188
17.05833	182
17.06667	176
17.07500	171
17.08333	167
17.09167	163
17.10000	159
17.10833	155
17.11667	152
17.12500	149
17.13333	146
17.14167	143
17.15000	140
17.15833	137
17.16667	134
17.17500	132
17.18333	130
17.19167	127
17.20000	126
17.20833	124
17.21667	122
17.22500	120
17.23333	118
17.24167	117
17.25000	116
17.25833	114
17.26667	113
17.27500	112
17.28333	111
17.29167	110
17.30000	109
17.30833	109
17.31667	108
17.32500	108
17.33333	107
17.34167	107
17.35000	107
17.35833	107
17.36667	106
17.37500	106
17.38333	106
17.39167	105
17.40000	105
17.40833	105
17.41667	105
17.42500	105
17.43333	105
17.44167	106
17.45000	106
17.45833	106
17.46667	106
17.47500	107
17.48333	108
17.49167	109
17.50000	110
17.50833	111
17.51667	112
17.52500	113
17.53333	113
17.54167	115
17.55000	117
17.55833	119
17.56667	121
17.57500	123
17.58333	125
17.59167	127
17.60000	130
17.60833	133
17.61667	136
17.62500	140
17.63333	144
17.64167	148
17.65000	153
17.65833	158
17.66667	164
17.67500	170
17.68333	177
17.69167	184
17.70000	192
17.70833	201
17.71667	211
17.72500	222
17.73333	234
17.74167	247
17.75000	262
17.75833	278
17.76667	296
17.77500	315
17.78333	336
17.79167	359
17.80000	384
17.80833	412
17.81667	444
17.82500	479
17.83333	516
17.84167	558
17.85000	603
17.85833	654
17.86667	709
17.87500	770
17.88333	837
17.89167	909
17.90000	988
17.90833	1073
17.91667	1166
17.92500	1266
17.93333	1374
17.94167	1489
17.95000	1613
17.95833	1743
17.96667	1881
17.97500	2025
17.98333	2176
17.99167	2333
18.00000	2494
18.00833	2658
18.01667	2825
18.02500	2993
18.03333	3161
18.04167	3328
18.05000	3491
18.05833	3649
18.06667	3801
18.07500	3945
18.08333	4079
18.09167	4202
18.10000	4312
18.10833	4408
18.11667	4489
18.12500	4555
18.13333	4604
18.14167	4636
18.15000	4651
18.15833	4649
18.16667	4629
18.17500	4592
18.18333	4539
18.19167	4471
18.20000	4388
18.20833	4293
18.21667	4186
18.22500	4069
18.23333	3942
18.24167	3808
18.25000	3667
18.25833	3521
18.26667	3372
18.27500	3220
18.28333	3068
18.29167	2916
18.30000	2766
18.30833	2618
18.31667	2473
18.32500	2332
18.33333	2196
18.34167	2065
18.35000	1939
18.35833	1820
18.36667	1706
18.37500	1598
18.38333	1497
18.39167	1401
18.40000	1312
18.40833	1228
18.41667	1150
18.42500	1078
18.43333	1011
18.44167	948
18.45000	891
18.45833	837
18.46667	788
18.47500	743
18.48333	702
18.49167	664
18.50000	629
18.50833	597
18.51667	568
18.52500	541
18.53333	516
18.54167	494
18.55000	473
18.55833	454
18.56667	438
18.57500	422
18.58333	409
18.59167	397
18.60000	386
18.60833	376
18.61667	368
18.62500	361
18.63333	355
18.64167	350
18.65000	346
18.65833	343
18.66667	341
18.67500	340
18.68333	339
18.69167	340
18.70000	342
18.70833	345
18.71667	348
18.72500	351
18.73333	356
18.74167	361
18.75000	367
18.75833	374
18.76667	381
18.77500	389
18.78333	397
18.79167	405
18.80000	414
18.80833	424
18.81667	433
18.82500	442
18.83333	451
18.84167	460
18.85000	469
18.85833	478
18.86667	487
18.87500	495
18.88333	503
18.89167	509
18.90000	515
18.90833	519
18.91667	523
18.92500	526
18.93333	529
18.94167	530
18.95000	530
18.95833	530
18.96667	528
18.97500	526
18.98333	523
18.99167	519
19.00000	514
19.00833	507
19.01667	501
19.02500	493
19.03333	485
19.04167	476
19.05000	467
19.05833	459
19.06667	450
19.07500	440
19.08333	430
19.09167	421
19.10000	411
19.10833	402
19.11667	392
19.12500	383
19.13333	374
19.14167	366
19.15000	357
19.15833	349
19.16667	342
19.17500	334
19.18333	328
19.19167	321
19.20000	315
19.20833	309
19.21667	304
19.22500	299
19.23333	295
19.24167	291
19.25000	287
19.25833	283
19.26667	280
19.27500	277
19.28333	274
19.29167	272
19.30000	270
19.30833	268
19.31667	266
19.32500	265
19.33333	264
19.34167	263
19.35000	262
19.35833	262
19.36667	262
19.37500	262
19.38333	262
19.39167	263
19.40000	263
19.40833	263
19.41667	264
19.42500	265
19.43333	266
19.44167	267
19.45000	268
19.45833	269
19.46667	270
19.47500	271
19.48333	271
19.49167	273
19.50000	274
19.50833	275
19.51667	275
19.52500	277
19.53333	278
19.54167	278
19.55000	279
19.55833	280
19.56667	281
19.57500	282
19.58333	284
19.59167	285
19.60000	286
19.60833	287
19.61667	287
19.62500	288
19.63333	288
19.64167	288
19.65000	289
19.65833	290
19.66667	290
19.67500	291
19.68333	291
19.69167	292
19.70000	292
19.70833	293
19.71667	294
19.72500	295
19.73333	295
19.74167	296
19.75000	296
19.75833	297
19.76667	297
19.77500	297
19.78333	298
19.79167	298
19.80000	298
19.80833	299
19.81667	300
19.82500	301
19.83333	301
19.84167	302
19.85000	302
19.85833	302
19.86667	303
19.87500	303
19.88333	304
19.89167	304
19.90000	305
19.90833	305
19.91667	305
19.92500	306
19.93333	306
19.94167	307
19.95000	308
19.95833	308
19.96667	309
19.97500	309
19.98333	310
19.99167	311
20.00000	312
20.00833	312
20.01667	313
20.02500	314
20.03333	314
20.04167	315
20.05000	315
20.05833	316
20.06667	316
20.07500	317
20.08333	317
20.09167	318
20.10000	319
20.10833	319
20.11667	320
20.12500	321
20.13333	321
20.14167	322
20.15000	323
20.15833	324
20.16667	325
20.17500	326
20.18333	327
20.19167	327
20.20000	328
20.20833	329
20.21667	330
20.22500	331
20.23333	332
20.24167	334
20.25000	335
20.25833	337
20.26667	338
20.27500	340
20.28333	341
20.29167	343
20.30000	345
20.30833	347
20.31667	348
20.32500	350
20.33333	352
20.34167	353
20.35000	356
20.35833	358
20.36667	360
20.37500	363
20.38333	365
20.39167	368
20.40000	371
20.40833	374
20.41667	377
20.42500	381
20.43333	385
20.44167	388
20.45000	392
20.45833	397
20.46667	401
20.47500	406
20.48333	411
20.49167	416
20.50000	422
20.50833	428
20.51667	434
20.52500	440
20.53333	447
20.54167	455
20.55000	462
20.55833	471
20.56667	481
20.57500	491
20.58333	502
20.59167	514
20.60000	526
20.60833	539
20.61667	554
20.62500	569
20.63333	586
20.64167	604
20.65000	622
20.65833	642
20.66667	663
20.67500	685
20.68333	709
20.69167	735
20.70000	761
20.70833	788
20.71667	817
20.72500	846
20.73333	878
20.74167	910
20.75000	944
20.75833	978
20.76667	1013
20.77500	1049
20.78333	1085
20.79167	1122
20.80000	1160
20.80833	1198
20.81667	1237
20.82500	1276
20.83333	1314
20.84167	1351
20.85000	1389
20.85833	1426
20.86667	1463
20.87500	1498
20.88333	1533
20.89167	1567
20.90000	1601
20.90833	1633
20.91667	1665
20.92500	1695
20.93333	1725
20.94167	1754
20.95000	1783
20.95833	1810
20.96667	1838
20.97500	1865
20.98333	1892
20.99167	1918
21.00000	1945
21.00833	1972
21.01667	2000
21.02500	2029
21.03333	2059
21.04167	2090
21.05000	2123
21.05833	2158
21.06667	2196
21.07500	2237
21.08333	2280
21.09167	2328
21.10000	2379
21.10833	2435
21.11667	2496
21.12500	2563
21.13333	2635
21.14167	2714
21.15000	2801
21.15833	2896
21.16667	2999
21.17500	3111
21.18333	3233
21.19167	3365
21.20000	3509
21.20833	3664
21.21667	3832
21.22500	4013
21.23333	4207
21.24167	4414
21.25000	4635
21.25833	4871
21.26667	5120
21.27500	5384
21.28333	5662
21.29167	5954
21.30000	6258
21.30833	6576
21.31667	6905
21.32500	7245
21.33333	7595
21.34167	7953
21.35000	8318
21.35833	8688
21.36667	9062
21.37500	9436
21.38333	9809
21.39167	10179
21.40000	10545
21.40833	10903
21.41667	11250
21.42500	11585
21.43333	11906
21.44167	12209
21.45000	12493
21.45833	12757
21.46667	12997
21.47500	13212
21.48333	13402
21.49167	13564
21.50000	13697
21.50833	13801
21.51667	13874
21.52500	13917
21.53333	13930
21.54167	13912
21.55000	13864
21.55833	13786
21.56667	13680
21.57500	13546
21.58333	13385
21.59167	13200
21.60000	12990
21.60833	12758
21.61667	12506
21.62500	12236
21.63333	11950
21.64167	11648
21.65000	11334
21.65833	11009
21.66667	10675
21.67500	10335
21.68333	9989
21.69167	9641
21.70000	9291
21.70833	8941
21.71667	8592
21.72500	8246
21.73333	7905
21.74167	7569
21.75000	7239
21.75833	6917
21.76667	6602
21.77500	6297
21.78333	6001
21.79167	5715
21.80000	5439
21.80833	5173
21.81667	4918
21.82500	4673
21.83333	4439
21.84167	4216
21.85000	4003
21.85833	3801
21.86667	3609
21.87500	3426
21.88333	3253
21.89167	3089
21.90000	2934
21.90833	2787
21.91667	2649
21.92500	2518
21.93333	2395
21.94167	2280
21.95000	2171
21.95833	2068
21.96667	1972
21.97500	1881
21.98333	1796
21.99167	1716
22.00000	1641
22.00833	1571
22.01667	1505
22.02500	1443
22.03333	1385
22.04167	1331
22.05000	1280
22.05833	1232
22.06667	1188
22.07500	1146
22.08333	1108
22.09167	1072
22.10000	1038
22.10833	1007
22.11667	978
22.12500	951
22.13333	926
22.14167	903
22.15000	882
22.15833	862
22.16667	844
22.17500	827
22.18333	811
22.19167	797
22.20000	784
22.20833	772
22.21667	762
22.22500	752
22.23333	744
22.24167	737
22.25000	730
22.25833	724
22.26667	719
22.27500	714
22.28333	710
22.29167	705
22.30000	702
22.30833	699
22.31667	696
22.32500	693
22.33333	692
22.34167	690
22.35000	689
22.35833	687
22.36667	686
22.37500	685
22.38333	684
22.39167	683
22.40000	682
22.40833	680
22.41667	678
22.42500	676
22.43333	674
22.44167	672
22.45000	669
22.45833	667
22.46667	664
22.47500	661
22.48333	658
22.49167	654
22.50000	650
22.50833	645
22.51667	641
22.52500	636
22.53333	630
22.54167	625
22.55000	619
22.55833	613
22.56667	607
22.57500	601
22.58333	595
22.59167	588
22.60000	581
22.60833	574
22.61667	568
22.62500	561
22.63333	554
22.64167	547
22.65000	540
22.65833	534
22.66667	527
22.67500	520
22.68333	514
22.69167	507
22.70000	501
22.70833	494
22.71667	488
22.72500	482
22.73333	477
22.74167	471
22.75000	467
22.75833	462
22.76667	458
22.77500	454
22.78333	450
22.79167	447
22.80000	444
22.80833	442
22.81667	440
22.82500	438
22.83333	436
22.84167	435
22.85000	434
22.85833	433
22.86667	432
22.87500	432
22.88333	432
22.89167	433
22.90000	434
22.90833	435
22.91667	436
22.92500	438
22.93333	440
22.94167	442
22.95000	444
22.95833	447
22.96667	449
22.97500	452
22.98333	455
22.99167	458
23.00000	460
23.00833	463
23.01667	466
23.02500	469
23.03333	472
23.04167	475
23.05000	478
23.05833	481
23.06667	484
23.07500	486
23.08333	489
23.09167	491
23.10000	494
23.10833	496
23.11667	498
23.12500	500
23.13333	501
23.14167	503
23.15000	505
23.15833	506
23.16667	508
23.17500	509
23.18333	510
23.19167	511
23.20000	512
23.20833	513
23.21667	514
23.22500	514
23.23333	515
23.24167	515
23.25000	515
23.25833	516
23.26667	516
23.27500	515
23.28333	515
23.29167	514
23.30000	514
23.30833	514
23.31667	514
23.32500	513
23.33333	513
23.34167	512
23.35000	512
23.35833	512
23.36667	511
23.37500	511
23.38333	510
23.39167	509
23.40000	509
23.40833	508
23.41667	508
23.42500	507
23.43333	506
23.44167	506
23.45000	505
23.45833	505
23.46667	505
23.47500	504
23.48333	503
23.49167	503
23.50000	502
23.50833	502
23.51667	502
23.52500	501
23.53333	501
23.54167	501
23.55000	500
23.55833	500
23.56667	500
23.57500	499
23.58333	499
23.59167	499
23.60000	499
23.60833	499
23.61667	499
23.62500	498
23.63333	498
23.64167	497
23.65000	498
23.65833	498
23.66667	498
23.67500	497
23.68333	497
23.69167	497
23.70000	497
23.70833	498
23.71667	498
23.72500	498
23.73333	498
23.74167	497
23.75000	497
23.75833	497
23.76667	497
23.77500	497
23.78333	497
23.79167	497
23.80000	497
23.80833	497
23.81667	497
23.82500	497
23.83333	497
23.84167	497
23.85000	497
23.85833	497
23.86667	497
23.87500	497
23.88333	497
23.89167	497
23.90000	497
23.90833	497
23.91667	496
23.92500	496
23.93333	496
23.94167	496
23.95000	496
23.95833	496
23.96667	496
23.97500	496
23.98333	496
23.99167	496
24.00000	496
24.00833	496
24.01667	496
24.02500	495
24.03333	495
24.04167	494
24.05000	494
24.05833	494
24.06667	493
24.07500	493
24.08333	492
24.09167	492
24.10000	492
24.10833	491
24.11667	490
24.12500	490
24.13333	489
24.14167	488
24.15000	487
24.15833	486
24.16667	485
24.17500	484
24.18333	482
24.19167	481
24.20000	479
24.20833	477
24.21667	476
24.22500	475
24.23333	474
24.24167	472
24.25000	470
24.25833	468
24.26667	467
24.27500	465
24.28333	463
24.29167	461
24.30000	458
24.30833	456
24.31667	454
24.32500	451
24.33333	449
24.34167	447
24.35000	445
24.35833	443
24.36667	441
24.37500	439
24.38333	437
24.39167	436
24.40000	434
24.40833	432
24.41667	431
24.42500	429
24.43333	428
24.44167	426
24.45000	424
24.45833	423
24.46667	422
24.47500	420
24.48333	419
24.49167	418
24.50000	417
24.50833	416
24.51667	415
24.52500	414
24.53333	414
24.54167	413
24.55000	412
24.55833	412
24.56667	411
24.57500	411
24.58333	411
24.59167	410
24.60000	410
24.60833	410
24.61667	409
24.62500	409
24.63333	409
24.64167	408
24.65000	408
24.65833	408
24.66667	408
24.67500	408
24.68333	408
24.69167	408
24.70000	408
24.70833	408
24.71667	408
24.72500	408
24.73333	408
24.74167	408
24.75000	407
24.75833	407
24.76667	408
24.77500	408
24.78333	409
24.79167	409
24.80000	409
24.80833	409
24.81667	409
24.82500	409
24.83333	409
24.84167	409
24.85000	409
24.85833	409
24.86667	409
24.87500	409
24.88333	409
24.89167	409
24.90000	409
24.90833	409
24.91667	409
24.92500	409
24.93333	409
24.94167	409
24.95000	408
24.95833	408
24.96667	408
24.97500	408
24.98333	408
24.99167	407
25.00000	407
25.00833	407
25.01667	406
25.02500	406
25.03333	406
25.04167	405
25.05000	405
25.05833	405
25.06667	404
25.07500	404
25.08333	404
25.09167	404
25.10000	403
25.10833	403
25.11667	402
25.12500	402
25.13333	402
25.14167	401
25.15000	401
25.15833	401
25.16667	400
25.17500	400
25.18333	400
25.19167	400
25.20000	399
25.20833	399
25.21667	399
25.22500	398
25.23333	398
25.24167	397
25.25000	397
25.25833	397
25.26667	397
25.27500	397
25.28333	397
25.29167	397
25.30000	396
25.30833	396
25.31667	396
25.32500	395
25.33333	395
25.34167	395
25.35000	395
25.35833	394
25.36667	393
25.37500	393
25.38333	393
25.39167	393
25.40000	393
25.40833	393
25.41667	393
25.42500	394
25.43333	393
25.44167	393
25.45000	393
25.45833	393
25.46667	393
25.47500	393
25.48333	393
25.49167	393
25.50000	393
25.50833	394
25.51667	393
25.52500	393
25.53333	393
25.54167	393
25.55000	394
25.55833	394
25.56667	394
25.57500	394
25.58333	394
25.59167	394
25.60000	394
25.60833	394
25.61667	394
25.62500	394
25.63333	394
25.64167	395
25.65000	395
25.65833	395
25.66667	396
25.67500	396
25.68333	396
25.69167	397
25.70000	397
25.70833	398
25.71667	398
25.72500	399
25.73333	399
25.74167	400
25.75000	401
25.75833	401
25.76667	402
25.77500	403
25.78333	404
25.79167	405
25.80000	405
25.80833	405
25.81667	406
25.82500	407
25.83333	409
25.84167	410
25.85000	411
25.85833	412
25.86667	413
25.87500	415
25.88333	417
25.89167	418
25.90000	420
25.90833	421
25.91667	423
25.92500	425
25.93333	427
25.94167	430
25.95000	432
25.95833	435
25.96667	438
25.97500	441
25.98333	445
25.99167	449
26.00000	453
26.00833	457
26.01667	462
26.02500	468
26.03333	473
26.04167	479
26.05000	485
26.05833	492
26.06667	499
26.07500	506
26.08333	514
26.09167	523
26.10000	532
26.10833	542
26.11667	553
26.12500	564
26.13333	575
26.14167	587
26.15000	601
26.15833	615
26.16667	630
26.17500	645
26.18333	661
26.19167	679
26.20000	698
26.20833	717
26.21667	737
26.22500	759
26.23333	782
26.24167	806
26.25000	831
26.25833	856
26.26667	883
26.27500	911
26.28333	939
26.29167	968
26.30000	999
26.30833	1030
26.31667	1062
26.32500	1095
26.33333	1128
26.34167	1162
26.35000	1195
26.35833	1230
26.36667	1264
26.37500	1299
26.38333	1333
26.39167	1366
26.40000	1399
26.40833	1432
26.41667	1464
26.42500	1495
26.43333	1525
26.44167	1554
26.45000	1582
26.45833	1608
26.46667	1632
26.47500	1654
26.48333	1674
26.49167	1693
26.50000	1708
26.50833	1722
26.51667	1733
26.52500	1741
26.53333	1747
26.54167	1751
26.55000	1752
26.55833	1750
26.56667	1746
26.57500	1739
26.58333	1729
26.59167	1718
26.60000	1703
26.60833	1686
26.61667	1668
26.62500	1647
26.63333	1625
26.64167	1600
26.65000	1574
26.65833	1546
26.66667	1517
26.67500	1486
26.68333	1455
26.69167	1422
26.70000	1388
26.70833	1354
26.71667	1319
26.72500	1284
26.73333	1249
26.74167	1214
26.75000	1179
26.75833	1144
26.76667	1110
26.77500	1076
26.78333	1042
26.79167	1009
26.80000	976
26.80833	944
26.81667	913
26.82500	883
26.83333	853
26.84167	825
26.85000	798
26.85833	772
26.86667	746
26.87500	721
26.88333	698
26.89167	675
26.90000	654
26.90833	634
26.91667	614
26.92500	596
26.93333	578
26.94167	561
26.95000	544
26.95833	529
26.96667	514
26.97500	500
26.98333	487
26.99167	474
27.00000	462
27.00833	450
27.01667	439
27.02500	429
27.03333	420
27.04167	411
27.05000	403
27.05833	395
27.06667	387
27.07500	380
27.08333	373
27.09167	367
27.10000	361
27.10833	354
27.11667	349
27.12500	343
27.13333	338
27.14167	333
27.15000	328
27.15833	324
27.16667	320
27.17500	316
27.18333	312
27.19167	308
27.20000	304
27.20833	300
27.21667	297
27.22500	293
27.23333	290
27.24167	287
27.25000	285
27.25833	282
27.26667	279
27.27500	277
27.28333	274
27.29167	271
27.30000	269
27.30833	266
27.31667	264
27.32500	261
27.33333	259
27.34167	258
27.35000	256
27.35833	254
27.36667	252
27.37500	250
27.38333	248
27.39167	246
27.40000	244
27.40833	243
27.41667	241
27.42500	239
27.43333	238
27.44167	236
27.45000	235
27.45833	233
27.46667	232
27.47500	231
27.48333	229
27.49167	228
27.50000	226
27.50833	225
27.51667	224
27.52500	223
27.53333	222
27.54167	221
27.55000	220
27.55833	219
27.56667	218
27.57500	217
27.58333	216
27.59167	215
27.60000	214
27.60833	213
27.61667	211
27.62500	210
27.63333	209
27.64167	208
27.65000	207
27.65833	206
27.66667	206
27.67500	205
27.68333	204
27.69167	203
27.70000	202
27.70833	201
27.71667	200
27.72500	199
27.73333	199
27.74167	198
27.75000	197
27.75833	196
27.76667	196
27.77500	195
27.78333	195
27.79167	194
27.80000	193
27.80833	192
27.81667	192
27.82500	191
27.83333	191
27.84167	190
27.85000	189
27.85833	188
27.86667	188
27.87500	187
27.88333	186
27.89167	186
27.90000	186
27.90833	185
27.91667	184
27.92500	183
27.93333	182
27.94167	181
27.95000	181
27.95833	180
27.96667	179
27.97500	179
27.98333	178
27.99167	177
28.00000	176

