R.Time (min)	Intensity
0.00000	-48
0.00833	-48
0.01667	-4
0.02500	-1
0.03333	-2
0.04167	-2
0.05000	-3
0.05833	-4
0.06667	-5
0.07500	-6
0.08333	-6
0.09167	-7
0.10000	-7
0.10833	-8
0.11667	-8
0.12500	-9
0.13333	-10
0.14167	-11
0.15000	-12
0.15833	-13
0.16667	-13
0.17500	-14
0.18333	-14
0.19167	-15
0.20000	-15
0.20833	-16
0.21667	-17
0.22500	-18
0.23333	-19
0.24167	-20
0.25000	-20
0.25833	-21
0.26667	-22
0.27500	-22
0.28333	-23
0.29167	-24
0.30000	-25
0.30833	-26
0.31667	-26
0.32500	-27
0.33333	-28
0.34167	-29
0.35000	-29
0.35833	-30
0.36667	-31
0.37500	-32
0.38333	-33
0.39167	-34
0.40000	-35
0.40833	-35
0.41667	-36
0.42500	-36
0.43333	-37
0.44167	-37
0.45000	-38
0.45833	-39
0.46667	-40
0.47500	-40
0.48333	-41
0.49167	-41
0.50000	-42
0.50833	-42
0.51667	-43
0.52500	-43
0.53333	-44
0.54167	-44
0.55000	-45
0.55833	-45
0.56667	-46
0.57500	-47
0.58333	-47
0.59167	-48
0.60000	-48
0.60833	-48
0.61667	-48
0.62500	-49
0.63333	-49
0.64167	-49
0.65000	-50
0.65833	-51
0.66667	-51
0.67500	-52
0.68333	-52
0.69167	-53
0.70000	-53
0.70833	-54
0.71667	-55
0.72500	-55
0.73333	-55
0.74167	-56
0.75000	-57
0.75833	-57
0.76667	-58
0.77500	-58
0.78333	-59
0.79167	-59
0.80000	-59
0.80833	-59
0.81667	-60
0.82500	-61
0.83333	-61
0.84167	-62
0.85000	-62
0.85833	-63
0.86667	-63
0.87500	-63
0.88333	-64
0.89167	-64
0.90000	-65
0.90833	-66
0.91667	-66
0.92500	-67
0.93333	-67
0.94167	-68
0.95000	-68
0.95833	-69
0.96667	-69
0.97500	-70
0.98333	-70
0.99167	-71
1.00000	-71
1.00833	-72
1.01667	-73
1.02500	-73
1.03333	-74
1.04167	-74
1.05000	-75
1.05833	-75
1.06667	-76
1.07500	-76
1.08333	-77
1.09167	-77
1.10000	-78
1.10833	-78
1.11667	-79
1.12500	-79
1.13333	-80
1.14167	-80
1.15000	-80
1.15833	-80
1.16667	-81
1.17500	-81
1.18333	-81
1.19167	-82
1.20000	-82
1.20833	-82
1.21667	-82
1.22500	-83
1.23333	-83
1.24167	-84
1.25000	-84
1.25833	-84
1.26667	-85
1.27500	-84
1.28333	-84
1.29167	-85
1.30000	-85
1.30833	-86
1.31667	-86
1.32500	-86
1.33333	-86
1.34167	-87
1.35000	-87
1.35833	-87
1.36667	-88
1.37500	-88
1.38333	-88
1.39167	-89
1.40000	-89
1.40833	-90
1.41667	-91
1.42500	-91
1.43333	-92
1.44167	-92
1.45000	-93
1.45833	-93
1.46667	-94
1.47500	-95
1.48333	-95
1.49167	-95
1.50000	-96
1.50833	-96
1.51667	-97
1.52500	-97
1.53333	-98
1.54167	-98
1.55000	-99
1.55833	-99
1.56667	-99
1.57500	-99
1.58333	-99
1.59167	-100
1.60000	-100
1.60833	-100
1.61667	-101
1.62500	-101
1.63333	-102
1.64167	-102
1.65000	-103
1.65833	-103
1.66667	-103
1.67500	-103
1.68333	-104
1.69167	-104
1.70000	-104
1.70833	-104
1.71667	-105
1.72500	-105
1.73333	-106
1.74167	-106
1.75000	-106
1.75833	-106
1.76667	-106
1.77500	-107
1.78333	-107
1.79167	-107
1.80000	-107
1.80833	-107
1.81667	-107
1.82500	-107
1.83333	-108
1.84167	-108
1.85000	-108
1.85833	-108
1.86667	-109
1.87500	-109
1.88333	-109
1.89167	-109
1.90000	-109
1.90833	-109
1.91667	-109
1.92500	-109
1.93333	-109
1.94167	-110
1.95000	-110
1.95833	-111
1.96667	-112
1.97500	-112
1.98333	-111
1.99167	-111
2.00000	-111
2.00833	-111
2.01667	-111
2.02500	-111
2.03333	-111
2.04167	-111
2.05000	-111
2.05833	-110
2.06667	-110
2.07500	-110
2.08333	-110
2.09167	-110
2.10000	-109
2.10833	-109
2.11667	-109
2.12500	-109
2.13333	-109
2.14167	-109
2.15000	-109
2.15833	-109
2.16667	-109
2.17500	-109
2.18333	-108
2.19167	-108
2.20000	-107
2.20833	-107
2.21667	-106
2.22500	-105
2.23333	-104
2.24167	-104
2.25000	-103
2.25833	-102
2.26667	-101
2.27500	-100
2.28333	-99
2.29167	-98
2.30000	-97
2.30833	-95
2.31667	-93
2.32500	-91
2.33333	-89
2.34167	-87
2.35000	-85
2.35833	-82
2.36667	-79
2.37500	-76
2.38333	-73
2.39167	-69
2.40000	-66
2.40833	-62
2.41667	-58
2.42500	-54
2.43333	-49
2.44167	-45
2.45000	-40
2.45833	-34
2.46667	-28
2.47500	-22
2.48333	-15
2.49167	-8
2.50000	0
2.50833	8
2.51667	17
2.52500	26
2.53333	35
2.54167	46
2.55000	56
2.55833	67
2.56667	79
2.57500	92
2.58333	105
2.59167	119
2.60000	133
2.60833	148
2.61667	164
2.62500	181
2.63333	199
2.64167	217
2.65000	237
2.65833	258
2.66667	279
2.67500	302
2.68333	326
2.69167	352
2.70000	378
2.70833	405
2.71667	435
2.72500	466
2.73333	499
2.74167	533
2.75000	570
2.75833	608
2.76667	648
2.77500	690
2.78333	735
2.79167	782
2.80000	830
2.80833	882
2.81667	936
2.82500	994
2.83333	1054
2.84167	1116
2.85000	1183
2.85833	1252
2.86667	1325
2.87500	1402
2.88333	1483
2.89167	1568
2.90000	1658
2.90833	1751
2.91667	1849
2.92500	1951
2.93333	2058
2.94167	2170
2.95000	2287
2.95833	2409
2.96667	2535
2.97500	2667
2.98333	2804
2.99167	2946
3.00000	3094
3.00833	3247
3.01667	3406
3.02500	3569
3.03333	3737
3.04167	3909
3.05000	4087
3.05833	4268
3.06667	4454
3.07500	4644
3.08333	4837
3.09167	5034
3.10000	5233
3.10833	5434
3.11667	5637
3.12500	5841
3.13333	6046
3.14167	6252
3.15000	6456
3.15833	6660
3.16667	6862
3.17500	7062
3.18333	7258
3.19167	7451
3.20000	7640
3.20833	7824
3.21667	8002
3.22500	8173
3.23333	8337
3.24167	8493
3.25000	8640
3.25833	8777
3.26667	8906
3.27500	9024
3.28333	9131
3.29167	9227
3.30000	9311
3.30833	9384
3.31667	9444
3.32500	9492
3.33333	9527
3.34167	9549
3.35000	9559
3.35833	9556
3.36667	9540
3.37500	9511
3.38333	9469
3.39167	9414
3.40000	9348
3.40833	9270
3.41667	9180
3.42500	9079
3.43333	8967
3.44167	8845
3.45000	8714
3.45833	8574
3.46667	8425
3.47500	8269
3.48333	8105
3.49167	7934
3.50000	7757
3.50833	7575
3.51667	7389
3.52500	7198
3.53333	7004
3.54167	6807
3.55000	6608
3.55833	6407
3.56667	6206
3.57500	6003
3.58333	5801
3.59167	5599
3.60000	5398
3.60833	5199
3.61667	5002
3.62500	4807
3.63333	4615
3.64167	4426
3.65000	4241
3.65833	4059
3.66667	3881
3.67500	3707
3.68333	3538
3.69167	3374
3.70000	3215
3.70833	3061
3.71667	2911
3.72500	2766
3.73333	2626
3.74167	2492
3.75000	2362
3.75833	2237
3.76667	2118
3.77500	2003
3.78333	1894
3.79167	1789
3.80000	1689
3.80833	1593
3.81667	1502
3.82500	1415
3.83333	1333
3.84167	1255
3.85000	1180
3.85833	1110
3.86667	1044
3.87500	981
3.88333	922
3.89167	865
3.90000	812
3.90833	762
3.91667	715
3.92500	671
3.93333	630
3.94167	590
3.95000	553
3.95833	518
3.96667	486
3.97500	456
3.98333	427
3.99167	400
4.00000	374
4.00833	350
4.01667	328
4.02500	307
4.03333	287
4.04167	269
4.05000	252
4.05833	236
4.06667	220
4.07500	205
4.08333	191
4.09167	178
4.10000	165
4.10833	153
4.11667	142
4.12500	131
4.13333	121
4.14167	112
4.15000	102
4.15833	93
4.16667	84
4.17500	75
4.18333	67
4.19167	59
4.20000	52
4.20833	44
4.21667	37
4.22500	30
4.23333	23
4.24167	16
4.25000	10
4.25833	4
4.26667	-2
4.27500	-8
4.28333	-13
4.29167	-19
4.30000	-24
4.30833	-29
4.31667	-34
4.32500	-38
4.33333	-43
4.34167	-47
4.35000	-52
4.35833	-57
4.36667	-61
4.37500	-65
4.38333	-69
4.39167	-73
4.40000	-76
4.40833	-80
4.41667	-84
4.42500	-87
4.43333	-91
4.44167	-94
4.45000	-97
4.45833	-100
4.46667	-103
4.47500	-105
4.48333	-107
4.49167	-110
4.50000	-112
4.50833	-114
4.51667	-116
4.52500	-118
4.53333	-120
4.54167	-122
4.55000	-124
4.55833	-126
4.56667	-127
4.57500	-128
4.58333	-129
4.59167	-131
4.60000	-132
4.60833	-133
4.61667	-135
4.62500	-136
4.63333	-137
4.64167	-138
4.65000	-139
4.65833	-140
4.66667	-141
4.67500	-141
4.68333	-142
4.69167	-142
4.70000	-143
4.70833	-144
4.71667	-144
4.72500	-144
4.73333	-145
4.74167	-145
4.75000	-146
4.75833	-146
4.76667	-146
4.77500	-147
4.78333	-147
4.79167	-147
4.80000	-147
4.80833	-147
4.81667	-148
4.82500	-148
4.83333	-148
4.84167	-147
4.85000	-147
4.85833	-147
4.86667	-147
4.87500	-147
4.88333	-147
4.89167	-147
4.90000	-147
4.90833	-147
4.91667	-147
4.92500	-147
4.93333	-147
4.94167	-147
4.95000	-147
4.95833	-147
4.96667	-147
4.97500	-147
4.98333	-147
4.99167	-147
5.00000	-147
5.00833	-147
5.01667	-147
5.02500	-147
5.03333	-146
5.04167	-146
5.05000	-146
5.05833	-146
5.06667	-146
5.07500	-146
5.08333	-147
5.09167	-147
5.10000	-147
5.10833	-147
5.11667	-147
5.12500	-147
5.13333	-147
5.14167	-146
5.15000	-146
5.15833	-146
5.16667	-146
5.17500	-145
5.18333	-145
5.19167	-145
5.20000	-145
5.20833	-145
5.21667	-145
5.22500	-145
5.23333	-145
5.24167	-145
5.25000	-145
5.25833	-145
5.26667	-146
5.27500	-146
5.28333	-147
5.29167	-147
5.30000	-147
5.30833	-148
5.31667	-148
5.32500	-148
5.33333	-148
5.34167	-148
5.35000	-148
5.35833	-147
5.36667	-148
5.37500	-148
5.38333	-149
5.39167	-149
5.40000	-149
5.40833	-149
5.41667	-149
5.42500	-149
5.43333	-150
5.44167	-150
5.45000	-150
5.45833	-150
5.46667	-150
5.47500	-150
5.48333	-151
5.49167	-151
5.50000	-150
5.50833	-150
5.51667	-151
5.52500	-151
5.53333	-152
5.54167	-153
5.55000	-154
5.55833	-154
5.56667	-155
5.57500	-155
5.58333	-155
5.59167	-155
5.60000	-155
5.60833	-155
5.61667	-155
5.62500	-156
5.63333	-156
5.64167	-156
5.65000	-156
5.65833	-156
5.66667	-156
5.67500	-157
5.68333	-157
5.69167	-158
5.70000	-158
5.70833	-159
5.71667	-159
5.72500	-159
5.73333	-159
5.74167	-159
5.75000	-159
5.75833	-159
5.76667	-160
5.77500	-160
5.78333	-160
5.79167	-161
5.80000	-161
5.80833	-161
5.81667	-161
5.82500	-161
5.83333	-161
5.84167	-160
5.85000	-161
5.85833	-161
5.86667	-161
5.87500	-161
5.88333	-160
5.89167	-160
5.90000	-160
5.90833	-160
5.91667	-160
5.92500	-160
5.93333	-160
5.94167	-160
5.95000	-160
5.95833	-161
5.96667	-161
5.97500	-161
5.98333	-161
5.99167	-161
6.00000	-160
6.00833	-160
6.01667	-160
6.02500	-160
6.03333	-160
6.04167	-159
6.05000	-159
6.05833	-158
6.06667	-159
6.07500	-159
6.08333	-159
6.09167	-159
6.10000	-159
6.10833	-159
6.11667	-159
6.12500	-159
6.13333	-159
6.14167	-159
6.15000	-159
6.15833	-159
6.16667	-158
6.17500	-158
6.18333	-158
6.19167	-157
6.20000	-157
6.20833	-157
6.21667	-157
6.22500	-157
6.23333	-157
6.24167	-157
6.25000	-157
6.25833	-157
6.26667	-157
6.27500	-157
6.28333	-157
6.29167	-157
6.30000	-157
6.30833	-157
6.31667	-157
6.32500	-156
6.33333	-156
6.34167	-156
6.35000	-156
6.35833	-156
6.36667	-156
6.37500	-156
6.38333	-156
6.39167	-156
6.40000	-156
6.40833	-156
6.41667	-156
6.42500	-156
6.43333	-157
6.44167	-157
6.45000	-157
6.45833	-157
6.46667	-157
6.47500	-157
6.48333	-158
6.49167	-158
6.50000	-157
6.50833	-157
6.51667	-156
6.52500	-156
6.53333	-156
6.54167	-156
6.55000	-156
6.55833	-156
6.56667	-156
6.57500	-156
6.58333	-156
6.59167	-156
6.60000	-155
6.60833	-156
6.61667	-156
6.62500	-156
6.63333	-156
6.64167	-156
6.65000	-156
6.65833	-156
6.66667	-156
6.67500	-156
6.68333	-156
6.69167	-157
6.70000	-157
6.70833	-157
6.71667	-157
6.72500	-157
6.73333	-157
6.74167	-157
6.75000	-157
6.75833	-157
6.76667	-158
6.77500	-157
6.78333	-157
6.79167	-157
6.80000	-157
6.80833	-157
6.81667	-157
6.82500	-157
6.83333	-157
6.84167	-157
6.85000	-157
6.85833	-157
6.86667	-157
6.87500	-157
6.88333	-157
6.89167	-157
6.90000	-157
6.90833	-157
6.91667	-157
6.92500	-157
6.93333	-156
6.94167	-155
6.95000	-155
6.95833	-155
6.96667	-155
6.97500	-155
6.98333	-154
6.99167	-154
7.00000	-153
7.00833	-153
7.01667	-152
7.02500	-152
7.03333	-151
7.04167	-150
7.05000	-148
7.05833	-146
7.06667	-143
7.07500	-139
7.08333	-135
7.09167	-131
7.10000	-127
7.10833	-121
7.11667	-114
7.12500	-107
7.13333	-98
7.14167	-88
7.15000	-77
7.15833	-65
7.16667	-51
7.17500	-36
7.18333	-19
7.19167	-1
7.20000	20
7.20833	42
7.21667	65
7.22500	89
7.23333	114
7.24167	140
7.25000	166
7.25833	191
7.26667	214
7.27500	233
7.28333	247
7.29167	255
7.30000	254
7.30833	245
7.31667	226
7.32500	201
7.33333	173
7.34167	150
7.35000	140
7.35833	157
7.36667	215
7.37500	333
7.38333	529
7.39167	824
7.40000	1236
7.40833	1782
7.41667	2475
7.42500	3324
7.43333	4331
7.44167	5495
7.45000	6803
7.45833	8234
7.46667	9758
7.47500	11336
7.48333	12917
7.49167	14443
7.50000	15853
7.50833	17082
7.51667	18071
7.52500	18772
7.53333	19151
7.54167	19195
7.55000	18909
7.55833	18320
7.56667	17471
7.57500	16415
7.58333	15214
7.59167	13928
7.60000	12611
7.60833	11314
7.61667	10074
7.62500	8918
7.63333	7866
7.64167	6925
7.65000	6097
7.65833	5378
7.66667	4760
7.67500	4233
7.68333	3785
7.69167	3404
7.70000	3081
7.70833	2806
7.71667	2570
7.72500	2365
7.73333	2187
7.74167	2029
7.75000	1889
7.75833	1763
7.76667	1649
7.77500	1545
7.78333	1449
7.79167	1360
7.80000	1278
7.80833	1202
7.81667	1130
7.82500	1062
7.83333	998
7.84167	937
7.85000	879
7.85833	825
7.86667	773
7.87500	724
7.88333	678
7.89167	634
7.90000	593
7.90833	555
7.91667	520
7.92500	487
7.93333	457
7.94167	430
7.95000	406
7.95833	384
7.96667	365
7.97500	349
7.98333	335
7.99167	323
8.00000	313
8.00833	305
8.01667	298
8.02500	292
8.03333	287
8.04167	281
8.05000	276
8.05833	271
8.06667	265
8.07500	258
8.08333	251
8.09167	243
8.10000	235
8.10833	227
8.11667	218
8.12500	209
8.13333	200
8.14167	191
8.15000	182
8.15833	173
8.16667	165
8.17500	157
8.18333	150
8.19167	143
8.20000	137
8.20833	131
8.21667	126
8.22500	122
8.23333	117
8.24167	113
8.25000	110
8.25833	107
8.26667	104
8.27500	101
8.28333	99
8.29167	97
8.30000	95
8.30833	93
8.31667	92
8.32500	91
8.33333	90
8.34167	89
8.35000	88
8.35833	87
8.36667	86
8.37500	85
8.38333	83
8.39167	82
8.40000	81
8.40833	79
8.41667	78
8.42500	77
8.43333	76
8.44167	75
8.45000	73
8.45833	72
8.46667	71
8.47500	69
8.48333	67
8.49167	66
8.50000	64
8.50833	62
8.51667	60
8.52500	58
8.53333	56
8.54167	54
8.55000	53
8.55833	51
8.56667	50
8.57500	48
8.58333	47
8.59167	46
8.60000	46
8.60833	46
8.61667	45
8.62500	45
8.63333	45
8.64167	45
8.65000	46
8.65833	46
8.66667	47
8.67500	49
8.68333	50
8.69167	52
8.70000	54
8.70833	55
8.71667	58
8.72500	61
8.73333	64
8.74167	67
8.75000	71
8.75833	75
8.76667	78
8.77500	82
8.78333	87
8.79167	92
8.80000	97
8.80833	103
8.81667	110
8.82500	117
8.83333	126
8.84167	137
8.85000	149
8.85833	163
8.86667	180
8.87500	200
8.88333	225
8.89167	255
8.90000	291
8.90833	333
8.91667	383
8.92500	440
8.93333	507
8.94167	582
8.95000	666
8.95833	759
8.96667	861
8.97500	970
8.98333	1085
8.99167	1206
9.00000	1329
9.00833	1454
9.01667	1577
9.02500	1696
9.03333	1808
9.04167	1911
9.05000	2003
9.05833	2082
9.06667	2146
9.07500	2194
9.08333	2226
9.09167	2240
9.10000	2238
9.10833	2218
9.11667	2184
9.12500	2135
9.13333	2073
9.14167	2001
9.15000	1919
9.15833	1830
9.16667	1736
9.17500	1638
9.18333	1538
9.19167	1439
9.20000	1341
9.20833	1245
9.21667	1152
9.22500	1064
9.23333	981
9.24167	903
9.25000	830
9.25833	763
9.26667	702
9.27500	646
9.28333	596
9.29167	551
9.30000	511
9.30833	475
9.31667	444
9.32500	418
9.33333	395
9.34167	376
9.35000	360
9.35833	349
9.36667	341
9.37500	338
9.38333	339
9.39167	344
9.40000	354
9.40833	371
9.41667	394
9.42500	425
9.43333	465
9.44167	517
9.45000	583
9.45833	665
9.46667	767
9.47500	893
9.48333	1047
9.49167	1234
9.50000	1458
9.50833	1725
9.51667	2040
9.52500	2407
9.53333	2833
9.54167	3320
9.55000	3872
9.55833	4490
9.56667	5174
9.57500	5923
9.58333	6732
9.59167	7595
9.60000	8505
9.60833	9452
9.61667	10425
9.62500	11409
9.63333	12391
9.64167	13356
9.65000	14287
9.65833	15169
9.66667	15990
9.67500	16735
9.68333	17394
9.69167	17958
9.70000	18420
9.70833	18777
9.71667	19028
9.72500	19174
9.73333	19222
9.74167	19177
9.75000	19050
9.75833	18850
9.76667	18590
9.77500	18281
9.78333	17938
9.79167	17573
9.80000	17199
9.80833	16827
9.81667	16468
9.82500	16132
9.83333	15826
9.84167	15559
9.85000	15335
9.85833	15160
9.86667	15035
9.87500	14963
9.88333	14943
9.89167	14977
9.90000	15064
9.90833	15201
9.91667	15387
9.92500	15620
9.93333	15895
9.94167	16211
9.95000	16565
9.95833	16952
9.96667	17371
9.97500	17816
9.98333	18286
9.99167	18776
10.00000	19283
10.00833	19803
10.01667	20331
10.02500	20862
10.03333	21389
10.04167	21899
10.05000	22376
10.05833	22796
10.06667	23130
10.07500	23342
10.08333	23394
10.09167	23247
10.10000	22872
10.10833	22252
10.11667	21386
10.12500	20293
10.13333	19006
10.14167	17573
10.15000	16047
10.15833	14486
10.16667	12940
10.17500	11452
10.18333	10057
10.19167	8777
10.20000	7624
10.20833	6602
10.21667	5708
10.22500	4935
10.23333	4273
10.24167	3709
10.25000	3232
10.25833	2830
10.26667	2491
10.27500	2205
10.28333	1964
10.29167	1760
10.30000	1587
10.30833	1439
10.31667	1311
10.32500	1201
10.33333	1104
10.34167	1019
10.35000	943
10.35833	875
10.36667	814
10.37500	758
10.38333	707
10.39167	661
10.40000	618
10.40833	578
10.41667	542
10.42500	508
10.43333	477
10.44167	449
10.45000	423
10.45833	400
10.46667	380
10.47500	362
10.48333	347
10.49167	335
10.50000	325
10.50833	318
10.51667	314
10.52500	313
10.53333	314
10.54167	318
10.55000	324
10.55833	333
10.56667	345
10.57500	359
10.58333	377
10.59167	398
10.60000	421
10.60833	448
10.61667	479
10.62500	515
10.63333	556
10.64167	603
10.65000	659
10.65833	725
10.66667	803
10.67500	895
10.68333	1006
10.69167	1138
10.70000	1296
10.70833	1484
10.71667	1709
10.72500	1977
10.73333	2292
10.74167	2662
10.75000	3092
10.75833	3589
10.76667	4157
10.77500	4800
10.78333	5519
10.79167	6315
10.80000	7187
10.80833	8129
10.81667	9134
10.82500	10192
10.83333	11290
10.84167	12412
10.85000	13542
10.85833	14660
10.86667	15746
10.87500	16778
10.88333	17736
10.89167	18600
10.90000	19354
10.90833	19982
10.91667	20472
10.92500	20816
10.93333	21008
10.94167	21048
10.95000	20938
10.95833	20684
10.96667	20295
10.97500	19784
10.98333	19163
10.99167	18449
11.00000	17659
11.00833	16809
11.01667	15915
11.02500	14994
11.03333	14060
11.04167	13126
11.05000	12205
11.05833	11307
11.06667	10439
11.07500	9609
11.08333	8822
11.09167	8082
11.10000	7390
11.10833	6748
11.11667	6155
11.12500	5610
11.13333	5113
11.14167	4659
11.15000	4248
11.15833	3876
11.16667	3541
11.17500	3239
11.18333	2967
11.19167	2722
11.20000	2503
11.20833	2305
11.21667	2127
11.22500	1966
11.23333	1821
11.24167	1690
11.25000	1570
11.25833	1461
11.26667	1362
11.27500	1270
11.28333	1185
11.29167	1107
11.30000	1034
11.30833	966
11.31667	903
11.32500	843
11.33333	787
11.34167	735
11.35000	686
11.35833	640
11.36667	596
11.37500	555
11.38333	517
11.39167	480
11.40000	447
11.40833	415
11.41667	385
11.42500	358
11.43333	332
11.44167	308
11.45000	286
11.45833	267
11.46667	249
11.47500	233
11.48333	218
11.49167	205
11.50000	193
11.50833	182
11.51667	172
11.52500	163
11.53333	155
11.54167	148
11.55000	142
11.55833	136
11.56667	131
11.57500	126
11.58333	121
11.59167	117
11.60000	113
11.60833	109
11.61667	106
11.62500	103
11.63333	101
11.64167	99
11.65000	98
11.65833	97
11.66667	96
11.67500	96
11.68333	97
11.69167	98
11.70000	100
11.70833	102
11.71667	105
11.72500	108
11.73333	111
11.74167	114
11.75000	117
11.75833	120
11.76667	122
11.77500	124
11.78333	126
11.79167	127
11.80000	127
11.80833	127
11.81667	126
11.82500	124
11.83333	121
11.84167	117
11.85000	113
11.85833	107
11.86667	101
11.87500	95
11.88333	88
11.89167	81
11.90000	73
11.90833	66
11.91667	58
11.92500	50
11.93333	43
11.94167	36
11.95000	29
11.95833	22
11.96667	16
11.97500	10
11.98333	5
11.99167	0
12.00000	-4
12.00833	-8
12.01667	-12
12.02500	-15
12.03333	-18
12.04167	-20
12.05000	-22
12.05833	-23
12.06667	-25
12.07500	-26
12.08333	-27
12.09167	-28
12.10000	-29
12.10833	-30
12.11667	-31
12.12500	-32
12.13333	-32
12.14167	-33
12.15000	-35
12.15833	-37
12.16667	-38
12.17500	-40
12.18333	-41
12.19167	-43
12.20000	-45
12.20833	-46
12.21667	-47
12.22500	-48
12.23333	-50
12.24167	-52
12.25000	-54
12.25833	-56
12.26667	-57
12.27500	-60
12.28333	-62
12.29167	-64
12.30000	-66
12.30833	-68
12.31667	-69
12.32500	-71
12.33333	-72
12.34167	-74
12.35000	-76
12.35833	-77
12.36667	-79
12.37500	-80
12.38333	-82
12.39167	-83
12.40000	-85
12.40833	-86
12.41667	-87
12.42500	-88
12.43333	-89
12.44167	-90
12.45000	-91
12.45833	-92
12.46667	-93
12.47500	-93
12.48333	-94
12.49167	-94
12.50000	-94
12.50833	-95
12.51667	-95
12.52500	-96
12.53333	-96
12.54167	-96
12.55000	-95
12.55833	-95
12.56667	-94
12.57500	-94
12.58333	-93
12.59167	-92
12.60000	-91
12.60833	-90
12.61667	-89
12.62500	-87
12.63333	-86
12.64167	-84
12.65000	-83
12.65833	-82
12.66667	-80
12.67500	-79
12.68333	-78
12.69167	-77
12.70000	-76
12.70833	-76
12.71667	-75
12.72500	-74
12.73333	-72
12.74167	-71
12.75000	-70
12.75833	-70
12.76667	-69
12.77500	-69
12.78333	-68
12.79167	-68
12.80000	-68
12.80833	-67
12.81667	-67
12.82500	-67
12.83333	-66
12.84167	-66
12.85000	-66
12.85833	-65
12.86667	-65
12.87500	-64
12.88333	-63
12.89167	-62
12.90000	-61
12.90833	-61
12.91667	-60
12.92500	-59
12.93333	-59
12.94167	-58
12.95000	-57
12.95833	-55
12.96667	-54
12.97500	-53
12.98333	-51
12.99167	-50
13.00000	-49
13.00833	-48
13.01667	-46
13.02500	-46
13.03333	-45
13.04167	-44
13.05000	-43
13.05833	-42
13.06667	-42
13.07500	-42
13.08333	-41
13.09167	-41
13.10000	-41
13.10833	-41
13.11667	-41
13.12500	-41
13.13333	-41
13.14167	-41
13.15000	-42
13.15833	-42
13.16667	-43
13.17500	-44
13.18333	-45
13.19167	-45
13.20000	-46
13.20833	-46
13.21667	-47
13.22500	-47
13.23333	-47
13.24167	-48
13.25000	-48
13.25833	-47
13.26667	-47
13.27500	-47
13.28333	-46
13.29167	-46
13.30000	-45
13.30833	-45
13.31667	-45
13.32500	-44
13.33333	-43
13.34167	-42
13.35000	-41
13.35833	-40
13.36667	-39
13.37500	-38
13.38333	-37
13.39167	-36
13.40000	-35
13.40833	-33
13.41667	-31
13.42500	-30
13.43333	-28
13.44167	-26
13.45000	-25
13.45833	-23
13.46667	-21
13.47500	-19
13.48333	-17
13.49167	-14
13.50000	-11
13.50833	-7
13.51667	-4
13.52500	-0
13.53333	3
13.54167	8
13.55000	13
13.55833	19
13.56667	26
13.57500	33
13.58333	42
13.59167	51
13.60000	62
13.60833	72
13.61667	83
13.62500	96
13.63333	108
13.64167	122
13.65000	136
13.65833	151
13.66667	166
13.67500	181
13.68333	196
13.69167	211
13.70000	225
13.70833	239
13.71667	252
13.72500	264
13.73333	276
13.74167	286
13.75000	294
13.75833	302
13.76667	308
13.77500	312
13.78333	316
13.79167	319
13.80000	321
13.80833	322
13.81667	322
13.82500	323
13.83333	324
13.84167	324
13.85000	325
13.85833	326
13.86667	327
13.87500	328
13.88333	330
13.89167	332
13.90000	334
13.90833	336
13.91667	339
13.92500	341
13.93333	343
13.94167	344
13.95000	346
13.95833	346
13.96667	346
13.97500	345
13.98333	344
13.99167	341
14.00000	338
14.00833	333
14.01667	328
14.02500	322
14.03333	315
14.04167	308
14.05000	300
14.05833	291
14.06667	282
14.07500	272
14.08333	263
14.09167	254
14.10000	245
14.10833	235
14.11667	227
14.12500	219
14.13333	211
14.14167	203
14.15000	195
14.15833	188
14.16667	182
14.17500	176
14.18333	171
14.19167	166
14.20000	162
14.20833	158
14.21667	155
14.22500	152
14.23333	150
14.24167	148
14.25000	146
14.25833	145
14.26667	144
14.27500	143
14.28333	144
14.29167	144
14.30000	144
14.30833	144
14.31667	145
14.32500	145
14.33333	146
14.34167	146
14.35000	147
14.35833	148
14.36667	150
14.37500	151
14.38333	152
14.39167	153
14.40000	154
14.40833	156
14.41667	157
14.42500	159
14.43333	160
14.44167	162
14.45000	163
14.45833	164
14.46667	166
14.47500	167
14.48333	168
14.49167	169
14.50000	171
14.50833	171
14.51667	171
14.52500	172
14.53333	172
14.54167	173
14.55000	174
14.55833	175
14.56667	175
14.57500	175
14.58333	175
14.59167	175
14.60000	175
14.60833	176
14.61667	176
14.62500	176
14.63333	175
14.64167	175
14.65000	174
14.65833	173
14.66667	173
14.67500	173
14.68333	173
14.69167	173
14.70000	172
14.70833	172
14.71667	172
14.72500	171
14.73333	171
14.74167	171
14.75000	171
14.75833	171
14.76667	171
14.77500	171
14.78333	171
14.79167	170
14.80000	170
14.80833	170
14.81667	170
14.82500	170
14.83333	170
14.84167	170
14.85000	171
14.85833	171
14.86667	171
14.87500	172
14.88333	172
14.89167	172
14.90000	172
14.90833	172
14.91667	172
14.92500	172
14.93333	172
14.94167	172
14.95000	173
14.95833	173
14.96667	173
14.97500	173
14.98333	173
14.99167	174
15.00000	175
15.00833	177
15.01667	178
15.02500	180
15.03333	181
15.04167	184
15.05000	187
15.05833	191
15.06667	196
15.07500	201
15.08333	207
15.09167	214
15.10000	222
15.10833	230
15.11667	240
15.12500	250
15.13333	261
15.14167	274
15.15000	287
15.15833	300
15.16667	315
15.17500	330
15.18333	346
15.19167	361
15.20000	376
15.20833	391
15.21667	406
15.22500	419
15.23333	432
15.24167	444
15.25000	454
15.25833	462
15.26667	469
15.27500	473
15.28333	476
15.29167	476
15.30000	475
15.30833	471
15.31667	466
15.32500	459
15.33333	449
15.34167	439
15.35000	426
15.35833	413
15.36667	398
15.37500	382
15.38333	365
15.39167	348
15.40000	330
15.40833	312
15.41667	295
15.42500	277
15.43333	260
15.44167	243
15.45000	226
15.45833	210
15.46667	195
15.47500	180
15.48333	165
15.49167	152
15.50000	140
15.50833	128
15.51667	117
15.52500	107
15.53333	97
15.54167	88
15.55000	79
15.55833	71
15.56667	64
15.57500	57
15.58333	51
15.59167	45
15.60000	39
15.60833	34
15.61667	30
15.62500	26
15.63333	22
15.64167	18
15.65000	15
15.65833	12
15.66667	9
15.67500	6
15.68333	3
15.69167	1
15.70000	-1
15.70833	-2
15.71667	-4
15.72500	-5
15.73333	-6
15.74167	-7
15.75000	-8
15.75833	-9
15.76667	-9
15.77500	-10
15.78333	-11
15.79167	-11
15.80000	-11
15.80833	-11
15.81667	-11
15.82500	-11
15.83333	-11
15.84167	-10
15.85000	-10
15.85833	-9
15.86667	-8
15.87500	-6
15.88333	-4
15.89167	-2
15.90000	1
15.90833	4
15.91667	8
15.92500	13
15.93333	18
15.94167	24
15.95000	31
15.95833	38
15.96667	46
15.97500	55
15.98333	65
15.99167	77
16.00000	89
16.00833	102
16.01667	116
16.02500	130
16.03333	145
16.04167	161
16.05000	176
16.05833	192
16.06667	208
16.07500	224
16.08333	239
16.09167	254
16.10000	267
16.10833	280
16.11667	291
16.12500	301
16.13333	310
16.14167	317
16.15000	322
16.15833	326
16.16667	328
16.17500	329
16.18333	327
16.19167	325
16.20000	321
16.20833	315
16.21667	308
16.22500	300
16.23333	291
16.24167	281
16.25000	272
16.25833	261
16.26667	251
16.27500	241
16.28333	231
16.29167	221
16.30000	211
16.30833	203
16.31667	196
16.32500	189
16.33333	183
16.34167	178
16.35000	174
16.35833	171
16.36667	169
16.37500	168
16.38333	169
16.39167	170
16.40000	174
16.40833	178
16.41667	183
16.42500	190
16.43333	197
16.44167	206
16.45000	216
16.45833	227
16.46667	239
16.47500	252
16.48333	267
16.49167	283
16.50000	299
16.50833	317
16.51667	335
16.52500	354
16.53333	373
16.54167	393
16.55000	414
16.55833	434
16.56667	454
16.57500	474
16.58333	493
16.59167	511
16.60000	528
16.60833	544
16.61667	559
16.62500	571
16.63333	582
16.64167	590
16.65000	597
16.65833	601
16.66667	603
16.67500	602
16.68333	599
16.69167	593
16.70000	585
16.70833	574
16.71667	562
16.72500	547
16.73333	531
16.74167	513
16.75000	494
16.75833	474
16.76667	452
16.77500	430
16.78333	408
16.79167	385
16.80000	363
16.80833	340
16.81667	318
16.82500	296
16.83333	275
16.84167	254
16.85000	234
16.85833	215
16.86667	197
16.87500	181
16.88333	165
16.89167	149
16.90000	135
16.90833	121
16.91667	109
16.92500	97
16.93333	87
16.94167	76
16.95000	67
16.95833	58
16.96667	50
16.97500	42
16.98333	35
16.99167	29
17.00000	22
17.00833	17
17.01667	12
17.02500	7
17.03333	3
17.04167	-1
17.05000	-5
17.05833	-9
17.06667	-12
17.07500	-15
17.08333	-18
17.09167	-20
17.10000	-22
17.10833	-24
17.11667	-25
17.12500	-27
17.13333	-29
17.14167	-30
17.15000	-31
17.15833	-32
17.16667	-34
17.17500	-35
17.18333	-37
17.19167	-38
17.20000	-40
17.20833	-41
17.21667	-42
17.22500	-42
17.23333	-43
17.24167	-44
17.25000	-44
17.25833	-45
17.26667	-45
17.27500	-46
17.28333	-46
17.29167	-46
17.30000	-46
17.30833	-46
17.31667	-46
17.32500	-46
17.33333	-46
17.34167	-46
17.35000	-46
17.35833	-46
17.36667	-46
17.37500	-46
17.38333	-46
17.39167	-46
17.40000	-45
17.40833	-45
17.41667	-45
17.42500	-45
17.43333	-44
17.44167	-44
17.45000	-43
17.45833	-42
17.46667	-42
17.47500	-41
17.48333	-40
17.49167	-39
17.50000	-38
17.50833	-37
17.51667	-36
17.52500	-35
17.53333	-35
17.54167	-33
17.55000	-32
17.55833	-30
17.56667	-29
17.57500	-27
17.58333	-26
17.59167	-24
17.60000	-22
17.60833	-20
17.61667	-18
17.62500	-15
17.63333	-12
17.64167	-9
17.65000	-6
17.65833	-2
17.66667	1
17.67500	6
17.68333	10
17.69167	15
17.70000	21
17.70833	27
17.71667	34
17.72500	42
17.73333	50
17.74167	59
17.75000	69
17.75833	79
17.76667	91
17.77500	104
17.78333	119
17.79167	135
17.80000	152
17.80833	171
17.81667	192
17.82500	214
17.83333	239
17.84167	267
17.85000	297
17.85833	331
17.86667	367
17.87500	407
17.88333	452
17.89167	500
17.90000	553
17.90833	610
17.91667	671
17.92500	737
17.93333	808
17.94167	884
17.95000	964
17.95833	1050
17.96667	1140
17.97500	1234
17.98333	1332
17.99167	1434
18.00000	1538
18.00833	1645
18.01667	1752
18.02500	1860
18.03333	1968
18.04167	2074
18.05000	2177
18.05833	2276
18.06667	2371
18.07500	2461
18.08333	2543
18.09167	2618
18.10000	2685
18.10833	2743
18.11667	2790
18.12500	2828
18.13333	2854
18.14167	2870
18.15000	2875
18.15833	2868
18.16667	2850
18.17500	2822
18.18333	2784
18.19167	2736
18.20000	2679
18.20833	2614
18.21667	2541
18.22500	2463
18.23333	2379
18.24167	2290
18.25000	2199
18.25833	2105
18.26667	2008
18.27500	1911
18.28333	1813
18.29167	1717
18.30000	1621
18.30833	1528
18.31667	1437
18.32500	1348
18.33333	1262
18.34167	1181
18.35000	1103
18.35833	1028
18.36667	957
18.37500	891
18.38333	828
18.39167	770
18.40000	716
18.40833	665
18.41667	618
18.42500	574
18.43333	533
18.44167	496
18.45000	461
18.45833	429
18.46667	400
18.47500	373
18.48333	348
18.49167	325
18.50000	305
18.50833	286
18.51667	268
18.52500	252
18.53333	238
18.54167	225
18.55000	213
18.55833	203
18.56667	194
18.57500	186
18.58333	179
18.59167	172
18.60000	167
18.60833	162
18.61667	159
18.62500	156
18.63333	154
18.64167	152
18.65000	151
18.65833	151
18.66667	152
18.67500	154
18.68333	156
18.69167	159
18.70000	162
18.70833	167
18.71667	172
18.72500	178
18.73333	185
18.74167	192
18.75000	199
18.75833	208
18.76667	216
18.77500	225
18.78333	234
18.79167	244
18.80000	253
18.80833	263
18.81667	273
18.82500	283
18.83333	293
18.84167	303
18.85000	312
18.85833	321
18.86667	329
18.87500	337
18.88333	344
18.89167	350
18.90000	356
18.90833	361
18.91667	364
18.92500	366
18.93333	368
18.94167	369
18.95000	369
18.95833	368
18.96667	366
18.97500	364
18.98333	360
18.99167	355
19.00000	350
19.00833	343
19.01667	336
19.02500	329
19.03333	321
19.04167	313
19.05000	304
19.05833	295
19.06667	285
19.07500	276
19.08333	266
19.09167	257
19.10000	247
19.10833	238
19.11667	229
19.12500	220
19.13333	212
19.14167	204
19.15000	195
19.15833	188
19.16667	180
19.17500	174
19.18333	168
19.19167	161
19.20000	156
19.20833	150
19.21667	146
19.22500	141
19.23333	137
19.24167	133
19.25000	130
19.25833	127
19.26667	124
19.27500	122
19.28333	120
19.29167	118
19.30000	117
19.30833	115
19.31667	114
19.32500	113
19.33333	112
19.34167	111
19.35000	110
19.35833	111
19.36667	111
19.37500	111
19.38333	112
19.39167	112
19.40000	113
19.40833	113
19.41667	114
19.42500	114
19.43333	115
19.44167	115
19.45000	116
19.45833	117
19.46667	118
19.47500	120
19.48333	121
19.49167	122
19.50000	123
19.50833	124
19.51667	125
19.52500	126
19.53333	127
19.54167	128
19.55000	129
19.55833	129
19.56667	131
19.57500	132
19.58333	132
19.59167	133
19.60000	134
19.60833	135
19.61667	135
19.62500	136
19.63333	137
19.64167	138
19.65000	139
19.65833	139
19.66667	139
19.67500	140
19.68333	140
19.69167	140
19.70000	140
19.70833	141
19.71667	141
19.72500	141
19.73333	142
19.74167	142
19.75000	143
19.75833	143
19.76667	144
19.77500	145
19.78333	145
19.79167	146
19.80000	147
19.80833	147
19.81667	148
19.82500	149
19.83333	149
19.84167	149
19.85000	150
19.85833	150
19.86667	151
19.87500	151
19.88333	151
19.89167	151
19.90000	151
19.90833	151
19.91667	151
19.92500	151
19.93333	152
19.94167	152
19.95000	153
19.95833	154
19.96667	155
19.97500	155
19.98333	156
19.99167	157
20.00000	158
20.00833	158
20.01667	159
20.02500	159
20.03333	159
20.04167	160
20.05000	161
20.05833	161
20.06667	162
20.07500	163
20.08333	164
20.09167	165
20.10000	166
20.10833	167
20.11667	168
20.12500	169
20.13333	170
20.14167	170
20.15000	171
20.15833	172
20.16667	173
20.17500	174
20.18333	175
20.19167	177
20.20000	177
20.20833	178
20.21667	179
20.22500	180
20.23333	181
20.24167	183
20.25000	184
20.25833	185
20.26667	186
20.27500	188
20.28333	189
20.29167	191
20.30000	193
20.30833	194
20.31667	196
20.32500	197
20.33333	199
20.34167	201
20.35000	203
20.35833	205
20.36667	207
20.37500	210
20.38333	212
20.39167	215
20.40000	217
20.40833	221
20.41667	224
20.42500	227
20.43333	230
20.44167	234
20.45000	237
20.45833	241
20.46667	246
20.47500	250
20.48333	255
20.49167	260
20.50000	266
20.50833	273
20.51667	279
20.52500	286
20.53333	293
20.54167	301
20.55000	309
20.55833	318
20.56667	328
20.57500	338
20.58333	349
20.59167	361
20.60000	373
20.60833	387
20.61667	402
20.62500	417
20.63333	434
20.64167	452
20.65000	471
20.65833	491
20.66667	513
20.67500	535
20.68333	558
20.69167	584
20.70000	610
20.70833	638
20.71667	667
20.72500	697
20.73333	728
20.74167	761
20.75000	794
20.75833	828
20.76667	864
20.77500	899
20.78333	936
20.79167	973
20.80000	1011
20.80833	1049
20.81667	1087
20.82500	1125
20.83333	1163
20.84167	1201
20.85000	1238
20.85833	1274
20.86667	1310
20.87500	1345
20.88333	1380
20.89167	1414
20.90000	1446
20.90833	1478
20.91667	1509
20.92500	1539
20.93333	1569
20.94167	1598
20.95000	1626
20.95833	1654
20.96667	1681
20.97500	1708
20.98333	1734
20.99167	1761
21.00000	1788
21.00833	1816
21.01667	1844
21.02500	1874
21.03333	1905
21.04167	1937
21.05000	1972
21.05833	2009
21.06667	2049
21.07500	2091
21.08333	2137
21.09167	2187
21.10000	2240
21.10833	2299
21.11667	2363
21.12500	2433
21.13333	2510
21.14167	2593
21.15000	2685
21.15833	2784
21.16667	2893
21.17500	3011
21.18333	3139
21.19167	3278
21.20000	3428
21.20833	3591
21.21667	3766
21.22500	3954
21.23333	4156
21.24167	4371
21.25000	4601
21.25833	4844
21.26667	5102
21.27500	5374
21.28333	5660
21.29167	5960
21.30000	6272
21.30833	6597
21.31667	6933
21.32500	7279
21.33333	7635
21.34167	7997
21.35000	8366
21.35833	8738
21.36667	9112
21.37500	9486
21.38333	9858
21.39167	10226
21.40000	10586
21.40833	10939
21.41667	11279
21.42500	11606
21.43333	11916
21.44167	12208
21.45000	12480
21.45833	12729
21.46667	12954
21.47500	13153
21.48333	13325
21.49167	13469
21.50000	13584
21.50833	13668
21.51667	13722
21.52500	13745
21.53333	13737
21.54167	13699
21.55000	13631
21.55833	13533
21.56667	13408
21.57500	13256
21.58333	13077
21.59167	12874
21.60000	12649
21.60833	12403
21.61667	12138
21.62500	11855
21.63333	11558
21.64167	11247
21.65000	10924
21.65833	10592
21.66667	10253
21.67500	9908
21.68333	9560
21.69167	9209
21.70000	8859
21.70833	8509
21.71667	8162
21.72500	7820
21.73333	7482
21.74167	7151
21.75000	6826
21.75833	6510
21.76667	6202
21.77500	5904
21.78333	5615
21.79167	5336
21.80000	5068
21.80833	4811
21.81667	4564
21.82500	4327
21.83333	4102
21.84167	3887
21.85000	3681
21.85833	3487
21.86667	3302
21.87500	3127
21.88333	2961
21.89167	2804
21.90000	2656
21.90833	2516
21.91667	2384
21.92500	2260
21.93333	2143
21.94167	2033
21.95000	1929
21.95833	1832
21.96667	1740
21.97500	1654
21.98333	1572
21.99167	1496
22.00000	1425
22.00833	1358
22.01667	1295
22.02500	1237
22.03333	1182
22.04167	1130
22.05000	1082
22.05833	1037
22.06667	995
22.07500	955
22.08333	919
22.09167	885
22.10000	853
22.10833	823
22.11667	796
22.12500	770
22.13333	747
22.14167	725
22.15000	705
22.15833	686
22.16667	669
22.17500	653
22.18333	640
22.19167	627
22.20000	615
22.20833	604
22.21667	594
22.22500	585
22.23333	577
22.24167	570
22.25000	564
22.25833	559
22.26667	553
22.27500	549
22.28333	545
22.29167	542
22.30000	538
22.30833	536
22.31667	533
22.32500	532
22.33333	530
22.34167	528
22.35000	527
22.35833	526
22.36667	525
22.37500	524
22.38333	523
22.39167	522
22.40000	520
22.40833	519
22.41667	517
22.42500	515
22.43333	513
22.44167	511
22.45000	508
22.45833	506
22.46667	503
22.47500	500
22.48333	497
22.49167	494
22.50000	489
22.50833	485
22.51667	480
22.52500	475
22.53333	470
22.54167	464
22.55000	458
22.55833	453
22.56667	447
22.57500	440
22.58333	434
22.59167	428
22.60000	421
22.60833	415
22.61667	409
22.62500	402
22.63333	395
22.64167	389
22.65000	381
22.65833	374
22.66667	368
22.67500	362
22.68333	356
22.69167	351
22.70000	345
22.70833	340
22.71667	334
22.72500	329
22.73333	323
22.74167	318
22.75000	313
22.75833	308
22.76667	305
22.77500	301
22.78333	298
22.79167	295
22.80000	293
22.80833	291
22.81667	289
22.82500	288
22.83333	287
22.84167	286
22.85000	286
22.85833	286
22.86667	286
22.87500	287
22.88333	288
22.89167	288
22.90000	289
22.90833	291
22.91667	293
22.92500	294
22.93333	296
22.94167	299
22.95000	301
22.95833	303
22.96667	305
22.97500	308
22.98333	311
22.99167	314
23.00000	316
23.00833	319
23.01667	322
23.02500	325
23.03333	328
23.04167	331
23.05000	333
23.05833	336
23.06667	338
23.07500	340
23.08333	342
23.09167	345
23.10000	347
23.10833	350
23.11667	352
23.12500	353
23.13333	354
23.14167	356
23.15000	357
23.15833	358
23.16667	359
23.17500	360
23.18333	361
23.19167	361
23.20000	361
23.20833	362
23.21667	362
23.22500	362
23.23333	362
23.24167	363
23.25000	362
23.25833	362
23.26667	362
23.27500	362
23.28333	362
23.29167	362
23.30000	362
23.30833	361
23.31667	361
23.32500	360
23.33333	360
23.34167	360
23.35000	359
23.35833	359
23.36667	358
23.37500	357
23.38333	357
23.39167	357
23.40000	356
23.40833	356
23.41667	355
23.42500	355
23.43333	354
23.44167	353
23.45000	352
23.45833	352
23.46667	351
23.47500	351
23.48333	350
23.49167	349
23.50000	348
23.50833	348
23.51667	347
23.52500	347
23.53333	346
23.54167	346
23.55000	346
23.55833	346
23.56667	345
23.57500	344
23.58333	344
23.59167	343
23.60000	343
23.60833	342
23.61667	342
23.62500	342
23.63333	342
23.64167	341
23.65000	341
23.65833	341
23.66667	340
23.67500	340
23.68333	340
23.69167	339
23.70000	339
23.70833	339
23.71667	339
23.72500	339
23.73333	339
23.74167	339
23.75000	339
23.75833	339
23.76667	339
23.77500	339
23.78333	339
23.79167	339
23.80000	339
23.80833	339
23.81667	340
23.82500	340
23.83333	340
23.84167	340
23.85000	340
23.85833	340
23.86667	340
23.87500	339
23.88333	339
23.89167	339
23.90000	338
23.90833	338
23.91667	338
23.92500	338
23.93333	338
23.94167	338
23.95000	338
23.95833	338
23.96667	338
23.97500	338
23.98333	338
23.99167	338
24.00000	337
24.00833	337
24.01667	337
24.02500	337
24.03333	337
24.04167	337
24.05000	337
24.05833	336
24.06667	335
24.07500	335
24.08333	334
24.09167	334
24.10000	333
24.10833	333
24.11667	332
24.12500	331
24.13333	330
24.14167	330
24.15000	329
24.15833	328
24.16667	326
24.17500	325
24.18333	324
24.19167	323
24.20000	321
24.20833	319
24.21667	317
24.22500	316
24.23333	314
24.24167	312
24.25000	311
24.25833	309
24.26667	307
24.27500	305
24.28333	303
24.29167	300
24.30000	298
24.30833	295
24.31667	293
24.32500	291
24.33333	289
24.34167	287
24.35000	285
24.35833	283
24.36667	281
24.37500	279
24.38333	277
24.39167	275
24.40000	273
24.40833	271
24.41667	270
24.42500	268
24.43333	267
24.44167	265
24.45000	263
24.45833	262
24.46667	260
24.47500	259
24.48333	257
24.49167	256
24.50000	255
24.50833	254
24.51667	252
24.52500	251
24.53333	250
24.54167	249
24.55000	248
24.55833	248
24.56667	247
24.57500	247
24.58333	247
24.59167	246
24.60000	246
24.60833	246
24.61667	246
24.62500	246
24.63333	246
24.64167	246
24.65000	246
24.65833	245
24.66667	245
24.67500	245
24.68333	246
24.69167	246
24.70000	247
24.70833	248
24.71667	248
24.72500	249
24.73333	250
24.74167	250
24.75000	250
24.75833	250
24.76667	251
24.77500	251
24.78333	251
24.79167	251
24.80000	252
24.80833	252
24.81667	252
24.82500	253
24.83333	253
24.84167	254
24.85000	254
24.85833	254
24.86667	254
24.87500	254
24.88333	254
24.89167	253
24.90000	253
24.90833	253
24.91667	253
24.92500	253
24.93333	253
24.94167	253
24.95000	252
24.95833	252
24.96667	251
24.97500	251
24.98333	251
24.99167	251
25.00000	251
25.00833	250
25.01667	250
25.02500	250
25.03333	250
25.04167	250
25.05000	250
25.05833	249
25.06667	249
25.07500	248
25.08333	248
25.09167	247
25.10000	247
25.10833	246
25.11667	246
25.12500	245
25.13333	245
25.14167	244
25.15000	244
25.15833	243
25.16667	243
25.17500	243
25.18333	243
25.19167	242
25.20000	242
25.20833	241
25.21667	241
25.22500	241
25.23333	240
25.24167	240
25.25000	239
25.25833	238
25.26667	238
25.27500	238
25.28333	238
25.29167	238
25.30000	238
25.30833	237
25.31667	237
25.32500	237
25.33333	236
25.34167	236
25.35000	235
25.35833	235
25.36667	235
25.37500	236
25.38333	236
25.39167	236
25.40000	236
25.40833	236
25.41667	235
25.42500	235
25.43333	236
25.44167	236
25.45000	237
25.45833	237
25.46667	237
25.47500	237
25.48333	237
25.49167	237
25.50000	237
25.50833	238
25.51667	238
25.52500	239
25.53333	239
25.54167	239
25.55000	239
25.55833	239
25.56667	239
25.57500	240
25.58333	240
25.59167	241
25.60000	241
25.60833	242
25.61667	242
25.62500	242
25.63333	242
25.64167	243
25.65000	243
25.65833	243
25.66667	243
25.67500	244
25.68333	244
25.69167	244
25.70000	245
25.70833	245
25.71667	245
25.72500	246
25.73333	246
25.74167	246
25.75000	247
25.75833	248
25.76667	248
25.77500	248
25.78333	249
25.79167	249
25.80000	249
25.80833	249
25.81667	250
25.82500	250
25.83333	251
25.84167	251
25.85000	252
25.85833	252
25.86667	253
25.87500	254
25.88333	255
25.89167	256
25.90000	257
25.90833	258
25.91667	259
25.92500	261
25.93333	263
25.94167	264
25.95000	266
25.95833	268
25.96667	270
25.97500	272
25.98333	274
25.99167	277
26.00000	280
26.00833	283
26.01667	286
26.02500	289
26.03333	293
26.04167	296
26.05000	300
26.05833	305
26.06667	309
26.07500	314
26.08333	319
26.09167	325
26.10000	331
26.10833	338
26.11667	344
26.12500	352
26.13333	360
26.14167	368
26.15000	376
26.15833	386
26.16667	396
26.17500	406
26.18333	418
26.19167	429
26.20000	442
26.20833	454
26.21667	468
26.22500	482
26.23333	497
26.24167	512
26.25000	529
26.25833	546
26.26667	563
26.27500	581
26.28333	599
26.29167	618
26.30000	639
26.30833	659
26.31667	680
26.32500	701
26.33333	722
26.34167	744
26.35000	766
26.35833	789
26.36667	811
26.37500	833
26.38333	855
26.39167	877
26.40000	898
26.40833	919
26.41667	940
26.42500	960
26.43333	980
26.44167	999
26.45000	1016
26.45833	1033
26.46667	1048
26.47500	1062
26.48333	1074
26.49167	1086
26.50000	1096
26.50833	1105
26.51667	1112
26.52500	1117
26.53333	1121
26.54167	1123
26.55000	1124
26.55833	1123
26.56667	1120
26.57500	1116
26.58333	1110
26.59167	1102
26.60000	1093
26.60833	1083
26.61667	1071
26.62500	1058
26.63333	1044
26.64167	1029
26.65000	1012
26.65833	995
26.66667	977
26.67500	959
26.68333	939
26.69167	919
26.70000	898
26.70833	878
26.71667	857
26.72500	835
26.73333	814
26.74167	792
26.75000	771
26.75833	750
26.76667	728
26.77500	707
26.78333	687
26.79167	666
26.80000	646
26.80833	627
26.81667	608
26.82500	590
26.83333	572
26.84167	555
26.85000	538
26.85833	521
26.86667	505
26.87500	490
26.88333	475
26.89167	461
26.90000	448
26.90833	435
26.91667	422
26.92500	410
26.93333	398
26.94167	387
26.95000	376
26.95833	365
26.96667	355
26.97500	346
26.98333	336
26.99167	328
27.00000	319
27.00833	311
27.01667	304
27.02500	296
27.03333	289
27.04167	282
27.05000	275
27.05833	269
27.06667	263
27.07500	257
27.08333	251
27.09167	245
27.10000	239
27.10833	234
27.11667	228
27.12500	223
27.13333	218
27.14167	213
27.15000	209
27.15833	204
27.16667	199
27.17500	195
27.18333	190
27.19167	186
27.20000	182
27.20833	178
27.21667	174
27.22500	169
27.23333	166
27.24167	162
27.25000	158
27.25833	155
27.26667	151
27.27500	147
27.28333	144
27.29167	141
27.30000	138
27.30833	135
27.31667	131
27.32500	128
27.33333	125
27.34167	123
27.35000	120
27.35833	118
27.36667	115
27.37500	113
27.38333	110
27.39167	108
27.40000	105
27.40833	102
27.41667	100
27.42500	98
27.43333	96
27.44167	94
27.45000	93
27.45833	91
27.46667	89
27.47500	87
27.48333	85
27.49167	83
27.50000	81
27.50833	79
27.51667	78
27.52500	76
27.53333	75
27.54167	73
27.55000	72
27.55833	70
27.56667	69
27.57500	67
27.58333	66
27.59167	65
27.60000	64
27.60833	63
27.61667	61
27.62500	60
27.63333	59
27.64167	58
27.65000	57
27.65833	56
27.66667	55
27.67500	54
27.68333	53
27.69167	52
27.70000	51
27.70833	50
27.71667	50
27.72500	49
27.73333	47
27.74167	46
27.75000	45
27.75833	44
27.76667	43
27.77500	43
27.78333	42
27.79167	41
27.80000	40
27.80833	39
27.81667	39
27.82500	38
27.83333	38
27.84167	38
27.85000	37
27.85833	36
27.86667	35
27.87500	34
27.88333	33
27.89167	32
27.90000	31
27.90833	30
27.91667	29
27.92500	29
27.93333	28
27.94167	28
27.95000	27
27.95833	26
27.96667	26
27.97500	25
27.98333	24
27.99167	24
28.00000	23

