R.Time (min)	Intensity
0.00000	-45
0.00833	-45
0.01667	-1
0.02500	-2
0.03333	-3
0.04167	-4
0.05000	-5
0.05833	-6
0.06667	-7
0.07500	-7
0.08333	-8
0.09167	-9
0.10000	-9
0.10833	-10
0.11667	-10
0.12500	-11
0.13333	-12
0.14167	-12
0.15000	-13
0.15833	-13
0.16667	-14
0.17500	-15
0.18333	-16
0.19167	-16
0.20000	-16
0.20833	-17
0.21667	-17
0.22500	-18
0.23333	-19
0.24167	-20
0.25000	-21
0.25833	-22
0.26667	-22
0.27500	-23
0.28333	-24
0.29167	-25
0.30000	-26
0.30833	-27
0.31667	-28
0.32500	-29
0.33333	-30
0.34167	-31
0.35000	-32
0.35833	-32
0.36667	-33
0.37500	-34
0.38333	-35
0.39167	-36
0.40000	-36
0.40833	-37
0.41667	-37
0.42500	-38
0.43333	-38
0.44167	-39
0.45000	-40
0.45833	-41
0.46667	-42
0.47500	-42
0.48333	-43
0.49167	-44
0.50000	-45
0.50833	-46
0.51667	-47
0.52500	-48
0.53333	-49
0.54167	-50
0.55000	-51
0.55833	-52
0.56667	-52
0.57500	-53
0.58333	-53
0.59167	-54
0.60000	-54
0.60833	-55
0.61667	-56
0.62500	-56
0.63333	-56
0.64167	-57
0.65000	-57
0.65833	-58
0.66667	-59
0.67500	-60
0.68333	-60
0.69167	-60
0.70000	-61
0.70833	-61
0.71667	-62
0.72500	-62
0.73333	-63
0.74167	-63
0.75000	-64
0.75833	-65
0.76667	-65
0.77500	-65
0.78333	-66
0.79167	-66
0.80000	-67
0.80833	-68
0.81667	-69
0.82500	-69
0.83333	-70
0.84167	-70
0.85000	-70
0.85833	-71
0.86667	-72
0.87500	-73
0.88333	-73
0.89167	-74
0.90000	-75
0.90833	-76
0.91667	-77
0.92500	-77
0.93333	-78
0.94167	-79
0.95000	-80
0.95833	-80
0.96667	-81
0.97500	-82
0.98333	-83
0.99167	-83
1.00000	-84
1.00833	-85
1.01667	-86
1.02500	-86
1.03333	-87
1.04167	-88
1.05000	-88
1.05833	-88
1.06667	-89
1.07500	-89
1.08333	-89
1.09167	-90
1.10000	-90
1.10833	-90
1.11667	-91
1.12500	-91
1.13333	-90
1.14167	-90
1.15000	-91
1.15833	-91
1.16667	-91
1.17500	-92
1.18333	-92
1.19167	-93
1.20000	-93
1.20833	-94
1.21667	-94
1.22500	-94
1.23333	-95
1.24167	-95
1.25000	-96
1.25833	-96
1.26667	-97
1.27500	-97
1.28333	-97
1.29167	-97
1.30000	-98
1.30833	-98
1.31667	-99
1.32500	-100
1.33333	-100
1.34167	-101
1.35000	-102
1.35833	-103
1.36667	-104
1.37500	-104
1.38333	-105
1.39167	-105
1.40000	-106
1.40833	-106
1.41667	-107
1.42500	-108
1.43333	-108
1.44167	-109
1.45000	-109
1.45833	-109
1.46667	-110
1.47500	-110
1.48333	-111
1.49167	-112
1.50000	-113
1.50833	-113
1.51667	-113
1.52500	-114
1.53333	-114
1.54167	-114
1.55000	-115
1.55833	-115
1.56667	-115
1.57500	-115
1.58333	-116
1.59167	-116
1.60000	-116
1.60833	-116
1.61667	-116
1.62500	-117
1.63333	-117
1.64167	-117
1.65000	-117
1.65833	-118
1.66667	-118
1.67500	-118
1.68333	-118
1.69167	-119
1.70000	-119
1.70833	-119
1.71667	-119
1.72500	-120
1.73333	-120
1.74167	-121
1.75000	-121
1.75833	-121
1.76667	-121
1.77500	-122
1.78333	-122
1.79167	-123
1.80000	-124
1.80833	-125
1.81667	-125
1.82500	-126
1.83333	-126
1.84167	-127
1.85000	-127
1.85833	-127
1.86667	-128
1.87500	-128
1.88333	-128
1.89167	-128
1.90000	-128
1.90833	-129
1.91667	-129
1.92500	-129
1.93333	-129
1.94167	-129
1.95000	-130
1.95833	-130
1.96667	-130
1.97500	-130
1.98333	-130
1.99167	-129
2.00000	-129
2.00833	-129
2.01667	-129
2.02500	-129
2.03333	-130
2.04167	-130
2.05000	-130
2.05833	-130
2.06667	-130
2.07500	-130
2.08333	-130
2.09167	-130
2.10000	-131
2.10833	-131
2.11667	-130
2.12500	-130
2.13333	-130
2.14167	-131
2.15000	-131
2.15833	-131
2.16667	-131
2.17500	-131
2.18333	-131
2.19167	-132
2.20000	-132
2.20833	-132
2.21667	-132
2.22500	-133
2.23333	-133
2.24167	-133
2.25000	-132
2.25833	-132
2.26667	-131
2.27500	-131
2.28333	-130
2.29167	-130
2.30000	-129
2.30833	-129
2.31667	-128
2.32500	-127
2.33333	-126
2.34167	-125
2.35000	-124
2.35833	-122
2.36667	-121
2.37500	-119
2.38333	-117
2.39167	-116
2.40000	-115
2.40833	-113
2.41667	-112
2.42500	-109
2.43333	-107
2.44167	-104
2.45000	-102
2.45833	-99
2.46667	-96
2.47500	-92
2.48333	-89
2.49167	-85
2.50000	-81
2.50833	-77
2.51667	-73
2.52500	-69
2.53333	-64
2.54167	-59
2.55000	-53
2.55833	-48
2.56667	-43
2.57500	-37
2.58333	-31
2.59167	-24
2.60000	-18
2.60833	-11
2.61667	-3
2.62500	4
2.63333	13
2.64167	21
2.65000	31
2.65833	41
2.66667	51
2.67500	62
2.68333	74
2.69167	85
2.70000	98
2.70833	111
2.71667	125
2.72500	140
2.73333	155
2.74167	172
2.75000	189
2.75833	208
2.76667	227
2.77500	248
2.78333	269
2.79167	292
2.80000	316
2.80833	341
2.81667	368
2.82500	395
2.83333	424
2.84167	455
2.85000	487
2.85833	521
2.86667	556
2.87500	594
2.88333	633
2.89167	673
2.90000	716
2.90833	761
2.91667	807
2.92500	857
2.93333	908
2.94167	962
2.95000	1018
2.95833	1076
2.96667	1137
2.97500	1200
2.98333	1266
2.99167	1334
3.00000	1404
3.00833	1477
3.01667	1552
3.02500	1629
3.03333	1708
3.04167	1790
3.05000	1874
3.05833	1960
3.06667	2048
3.07500	2138
3.08333	2229
3.09167	2322
3.10000	2416
3.10833	2511
3.11667	2607
3.12500	2704
3.13333	2802
3.14167	2899
3.15000	2996
3.15833	3093
3.16667	3188
3.17500	3283
3.18333	3376
3.19167	3467
3.20000	3556
3.20833	3643
3.21667	3726
3.22500	3807
3.23333	3884
3.24167	3958
3.25000	4028
3.25833	4094
3.26667	4155
3.27500	4211
3.28333	4262
3.29167	4308
3.30000	4348
3.30833	4383
3.31667	4411
3.32500	4433
3.33333	4450
3.34167	4460
3.35000	4465
3.35833	4463
3.36667	4455
3.37500	4442
3.38333	4422
3.39167	4395
3.40000	4363
3.40833	4326
3.41667	4283
3.42500	4235
3.43333	4181
3.44167	4122
3.45000	4059
3.45833	3991
3.46667	3919
3.47500	3844
3.48333	3765
3.49167	3683
3.50000	3598
3.50833	3511
3.51667	3421
3.52500	3329
3.53333	3235
3.54167	3140
3.55000	3045
3.55833	2948
3.56667	2851
3.57500	2753
3.58333	2656
3.59167	2559
3.60000	2464
3.60833	2369
3.61667	2275
3.62500	2182
3.63333	2091
3.64167	2001
3.65000	1912
3.65833	1826
3.66667	1741
3.67500	1659
3.68333	1579
3.69167	1502
3.70000	1427
3.70833	1354
3.71667	1284
3.72500	1216
3.73333	1150
3.74167	1088
3.75000	1027
3.75833	970
3.76667	914
3.77500	861
3.78333	811
3.79167	762
3.80000	717
3.80833	673
3.81667	632
3.82500	593
3.83333	556
3.84167	520
3.85000	487
3.85833	456
3.86667	427
3.87500	400
3.88333	373
3.89167	348
3.90000	325
3.90833	304
3.91667	283
3.92500	264
3.93333	246
3.94167	229
3.95000	213
3.95833	198
3.96667	184
3.97500	171
3.98333	159
3.99167	148
4.00000	137
4.00833	127
4.01667	118
4.02500	109
4.03333	101
4.04167	92
4.05000	85
4.05833	78
4.06667	71
4.07500	64
4.08333	58
4.09167	52
4.10000	46
4.10833	41
4.11667	36
4.12500	31
4.13333	26
4.14167	21
4.15000	16
4.15833	11
4.16667	6
4.17500	1
4.18333	-4
4.19167	-9
4.20000	-14
4.20833	-18
4.21667	-22
4.22500	-27
4.23333	-31
4.24167	-35
4.25000	-39
4.25833	-44
4.26667	-48
4.27500	-52
4.28333	-56
4.29167	-60
4.30000	-64
4.30833	-68
4.31667	-72
4.32500	-76
4.33333	-79
4.34167	-82
4.35000	-85
4.35833	-89
4.36667	-92
4.37500	-95
4.38333	-98
4.39167	-101
4.40000	-104
4.40833	-107
4.41667	-109
4.42500	-112
4.43333	-114
4.44167	-117
4.45000	-119
4.45833	-121
4.46667	-123
4.47500	-125
4.48333	-127
4.49167	-129
4.50000	-131
4.50833	-132
4.51667	-134
4.52500	-135
4.53333	-136
4.54167	-137
4.55000	-137
4.55833	-138
4.56667	-138
4.57500	-139
4.58333	-140
4.59167	-141
4.60000	-141
4.60833	-142
4.61667	-142
4.62500	-143
4.63333	-143
4.64167	-143
4.65000	-143
4.65833	-143
4.66667	-143
4.67500	-143
4.68333	-144
4.69167	-144
4.70000	-144
4.70833	-144
4.71667	-143
4.72500	-143
4.73333	-142
4.74167	-142
4.75000	-142
4.75833	-142
4.76667	-141
4.77500	-141
4.78333	-140
4.79167	-140
4.80000	-139
4.80833	-138
4.81667	-137
4.82500	-136
4.83333	-135
4.84167	-135
4.85000	-135
4.85833	-134
4.86667	-134
4.87500	-133
4.88333	-132
4.89167	-132
4.90000	-132
4.90833	-131
4.91667	-131
4.92500	-131
4.93333	-131
4.94167	-131
4.95000	-130
4.95833	-130
4.96667	-129
4.97500	-128
4.98333	-128
4.99167	-127
5.00000	-127
5.00833	-127
5.01667	-126
5.02500	-126
5.03333	-126
5.04167	-127
5.05000	-126
5.05833	-126
5.06667	-126
5.07500	-126
5.08333	-126
5.09167	-127
5.10000	-127
5.10833	-127
5.11667	-127
5.12500	-127
5.13333	-127
5.14167	-128
5.15000	-128
5.15833	-129
5.16667	-129
5.17500	-129
5.18333	-129
5.19167	-130
5.20000	-130
5.20833	-130
5.21667	-131
5.22500	-131
5.23333	-132
5.24167	-132
5.25000	-132
5.25833	-132
5.26667	-132
5.27500	-133
5.28333	-133
5.29167	-133
5.30000	-134
5.30833	-135
5.31667	-136
5.32500	-137
5.33333	-138
5.34167	-138
5.35000	-139
5.35833	-139
5.36667	-140
5.37500	-140
5.38333	-141
5.39167	-141
5.40000	-142
5.40833	-143
5.41667	-143
5.42500	-144
5.43333	-145
5.44167	-146
5.45000	-147
5.45833	-148
5.46667	-148
5.47500	-149
5.48333	-150
5.49167	-150
5.50000	-151
5.50833	-151
5.51667	-151
5.52500	-151
5.53333	-151
5.54167	-152
5.55000	-152
5.55833	-152
5.56667	-153
5.57500	-154
5.58333	-154
5.59167	-155
5.60000	-155
5.60833	-156
5.61667	-156
5.62500	-157
5.63333	-157
5.64167	-157
5.65000	-157
5.65833	-157
5.66667	-157
5.67500	-158
5.68333	-158
5.69167	-158
5.70000	-158
5.70833	-158
5.71667	-158
5.72500	-159
5.73333	-159
5.74167	-159
5.75000	-160
5.75833	-160
5.76667	-160
5.77500	-160
5.78333	-160
5.79167	-161
5.80000	-161
5.80833	-161
5.81667	-161
5.82500	-162
5.83333	-162
5.84167	-162
5.85000	-162
5.85833	-163
5.86667	-163
5.87500	-163
5.88333	-164
5.89167	-164
5.90000	-164
5.90833	-164
5.91667	-165
5.92500	-165
5.93333	-165
5.94167	-166
5.95000	-166
5.95833	-166
5.96667	-166
5.97500	-166
5.98333	-166
5.99167	-166
6.00000	-166
6.00833	-166
6.01667	-167
6.02500	-167
6.03333	-167
6.04167	-168
6.05000	-168
6.05833	-168
6.06667	-168
6.07500	-167
6.08333	-168
6.09167	-168
6.10000	-169
6.10833	-169
6.11667	-168
6.12500	-168
6.13333	-168
6.14167	-168
6.15000	-168
6.15833	-168
6.16667	-169
6.17500	-169
6.18333	-169
6.19167	-168
6.20000	-168
6.20833	-168
6.21667	-168
6.22500	-169
6.23333	-168
6.24167	-168
6.25000	-168
6.25833	-169
6.26667	-169
6.27500	-169
6.28333	-169
6.29167	-169
6.30000	-169
6.30833	-169
6.31667	-168
6.32500	-168
6.33333	-168
6.34167	-168
6.35000	-168
6.35833	-168
6.36667	-168
6.37500	-168
6.38333	-167
6.39167	-167
6.40000	-167
6.40833	-167
6.41667	-167
6.42500	-167
6.43333	-167
6.44167	-167
6.45000	-167
6.45833	-167
6.46667	-167
6.47500	-167
6.48333	-167
6.49167	-167
6.50000	-167
6.50833	-167
6.51667	-167
6.52500	-167
6.53333	-166
6.54167	-166
6.55000	-166
6.55833	-166
6.56667	-166
6.57500	-166
6.58333	-166
6.59167	-166
6.60000	-165
6.60833	-165
6.61667	-165
6.62500	-165
6.63333	-165
6.64167	-166
6.65000	-166
6.65833	-166
6.66667	-167
6.67500	-167
6.68333	-167
6.69167	-167
6.70000	-167
6.70833	-167
6.71667	-166
6.72500	-167
6.73333	-168
6.74167	-168
6.75000	-168
6.75833	-168
6.76667	-169
6.77500	-169
6.78333	-169
6.79167	-169
6.80000	-169
6.80833	-169
6.81667	-169
6.82500	-170
6.83333	-170
6.84167	-170
6.85000	-170
6.85833	-169
6.86667	-169
6.87500	-169
6.88333	-169
6.89167	-169
6.90000	-170
6.90833	-170
6.91667	-170
6.92500	-170
6.93333	-169
6.94167	-169
6.95000	-169
6.95833	-169
6.96667	-169
6.97500	-169
6.98333	-169
6.99167	-169
7.00000	-169
7.00833	-169
7.01667	-168
7.02500	-168
7.03333	-167
7.04167	-166
7.05000	-165
7.05833	-164
7.06667	-162
7.07500	-159
7.08333	-157
7.09167	-154
7.10000	-151
7.10833	-147
7.11667	-141
7.12500	-135
7.13333	-128
7.14167	-120
7.15000	-110
7.15833	-98
7.16667	-85
7.17500	-71
7.18333	-55
7.19167	-37
7.20000	-16
7.20833	6
7.21667	30
7.22500	56
7.23333	83
7.24167	111
7.25000	139
7.25833	167
7.26667	195
7.27500	220
7.28333	242
7.29167	258
7.30000	268
7.30833	269
7.31667	261
7.32500	244
7.33333	219
7.34167	192
7.35000	168
7.35833	159
7.36667	176
7.37500	236
7.38333	356
7.39167	557
7.40000	857
7.40833	1276
7.41667	1831
7.42500	2536
7.43333	3399
7.44167	4424
7.45000	5606
7.45833	6933
7.46667	8386
7.47500	9932
7.48333	11532
7.49167	13132
7.50000	14676
7.50833	16099
7.51667	17337
7.52500	18330
7.53333	19029
7.54167	19402
7.55000	19435
7.55833	19136
7.56667	18532
7.57500	17667
7.58333	16597
7.59167	15381
7.60000	14081
7.60833	12753
7.61667	11445
7.62500	10197
7.63333	9034
7.64167	7975
7.65000	7028
7.65833	6194
7.66667	5469
7.67500	4846
7.68333	4313
7.69167	3860
7.70000	3475
7.70833	3147
7.71667	2867
7.72500	2626
7.73333	2417
7.74167	2235
7.75000	2073
7.75833	1929
7.76667	1800
7.77500	1682
7.78333	1575
7.79167	1477
7.80000	1387
7.80833	1303
7.81667	1225
7.82500	1151
7.83333	1082
7.84167	1017
7.85000	955
7.85833	896
7.86667	840
7.87500	787
7.88333	737
7.89167	688
7.90000	642
7.90833	599
7.91667	559
7.92500	520
7.93333	484
7.94167	452
7.95000	423
7.95833	396
7.96667	372
7.97500	352
7.98333	334
7.99167	318
8.00000	305
8.00833	294
8.01667	284
8.02500	276
8.03333	269
8.04167	262
8.05000	255
8.05833	249
8.06667	243
8.07500	237
8.08333	230
8.09167	223
8.10000	215
8.10833	207
8.11667	198
8.12500	190
8.13333	181
8.14167	173
8.15000	164
8.15833	156
8.16667	148
8.17500	141
8.18333	133
8.19167	126
8.20000	120
8.20833	114
8.21667	108
8.22500	102
8.23333	97
8.24167	93
8.25000	89
8.25833	85
8.26667	82
8.27500	80
8.28333	77
8.29167	75
8.30000	74
8.30833	72
8.31667	70
8.32500	69
8.33333	68
8.34167	66
8.35000	66
8.35833	65
8.36667	64
8.37500	63
8.38333	62
8.39167	62
8.40000	61
8.40833	60
8.41667	59
8.42500	57
8.43333	56
8.44167	54
8.45000	53
8.45833	51
8.46667	50
8.47500	48
8.48333	46
8.49167	44
8.50000	43
8.50833	41
8.51667	39
8.52500	38
8.53333	37
8.54167	35
8.55000	34
8.55833	32
8.56667	31
8.57500	30
8.58333	28
8.59167	27
8.60000	26
8.60833	26
8.61667	26
8.62500	26
8.63333	27
8.64167	27
8.65000	28
8.65833	30
8.66667	32
8.67500	34
8.68333	36
8.69167	39
8.70000	43
8.70833	46
8.71667	50
8.72500	55
8.73333	59
8.74167	64
8.75000	69
8.75833	73
8.76667	78
8.77500	84
8.78333	89
8.79167	94
8.80000	99
8.80833	104
8.81667	110
8.82500	116
8.83333	123
8.84167	131
8.85000	141
8.85833	152
8.86667	165
8.87500	181
8.88333	201
8.89167	225
8.90000	254
8.90833	289
8.91667	331
8.92500	380
8.93333	438
8.94167	504
8.95000	580
8.95833	665
8.96667	759
8.97500	862
8.98333	973
8.99167	1090
9.00000	1212
9.00833	1337
9.01667	1463
9.02500	1588
9.03333	1707
9.04167	1821
9.05000	1924
9.05833	2017
9.06667	2095
9.07500	2159
9.08333	2206
9.09167	2237
9.10000	2249
9.10833	2245
9.11667	2224
9.12500	2187
9.13333	2136
9.14167	2072
9.15000	1998
9.15833	1915
9.16667	1825
9.17500	1730
9.18333	1632
9.19167	1532
9.20000	1433
9.20833	1336
9.21667	1241
9.22500	1150
9.23333	1064
9.24167	983
9.25000	907
9.25833	838
9.26667	774
9.27500	716
9.28333	664
9.29167	617
9.30000	575
9.30833	539
9.31667	507
9.32500	479
9.33333	455
9.34167	435
9.35000	419
9.35833	406
9.36667	396
9.37500	390
9.38333	388
9.39167	390
9.40000	396
9.40833	407
9.41667	423
9.42500	446
9.43333	476
9.44167	516
9.45000	568
9.45833	633
9.46667	715
9.47500	817
9.48333	943
9.49167	1098
9.50000	1285
9.50833	1511
9.51667	1780
9.52500	2099
9.53333	2472
9.54167	2903
9.55000	3397
9.55833	3957
9.56667	4584
9.57500	5279
9.58333	6040
9.59167	6863
9.60000	7741
9.60833	8666
9.61667	9630
9.62500	10618
9.63333	11619
9.64167	12617
9.65000	13596
9.65833	14540
9.66667	15436
9.67500	16266
9.68333	17019
9.69167	17684
9.70000	18250
9.70833	18713
9.71667	19067
9.72500	19313
9.73333	19454
9.74167	19493
9.75000	19437
9.75833	19298
9.76667	19084
9.77500	18809
9.78333	18487
9.79167	18129
9.80000	17749
9.80833	17361
9.81667	16975
9.82500	16602
9.83333	16254
9.84167	15938
9.85000	15660
9.85833	15427
9.86667	15243
9.87500	15110
9.88333	15031
9.89167	15006
9.90000	15035
9.90833	15117
9.91667	15251
9.92500	15435
9.93333	15665
9.94167	15939
9.95000	16255
9.95833	16608
9.96667	16996
9.97500	17415
9.98333	17861
9.99167	18332
10.00000	18823
10.00833	19332
10.01667	19854
10.02500	20385
10.03333	20921
10.04167	21452
10.05000	21968
10.05833	22454
10.06667	22886
10.07500	23235
10.08333	23467
10.09167	23541
10.10000	23421
10.10833	23073
10.11667	22480
10.12500	21639
10.13333	20563
10.14167	19287
10.15000	17858
10.15833	16328
10.16667	14756
10.17500	13193
10.18333	11685
10.19167	10266
10.20000	8962
10.20833	7784
10.21667	6738
10.22500	5823
10.23333	5031
10.24167	4351
10.25000	3772
10.25833	3282
10.26667	2868
10.27500	2520
10.28333	2227
10.29167	1980
10.30000	1771
10.30833	1593
10.31667	1442
10.32500	1313
10.33333	1200
10.34167	1102
10.35000	1016
10.35833	939
10.36667	870
10.37500	808
10.38333	751
10.39167	700
10.40000	652
10.40833	609
10.41667	568
10.42500	530
10.43333	496
10.44167	464
10.45000	434
10.45833	408
10.46667	384
10.47500	362
10.48333	342
10.49167	326
10.50000	311
10.50833	299
10.51667	290
10.52500	282
10.53333	276
10.54167	272
10.55000	270
10.55833	269
10.56667	269
10.57500	270
10.58333	272
10.59167	274
10.60000	276
10.60833	277
10.61667	279
10.62500	279
10.63333	279
10.64167	277
10.65000	275
10.65833	271
10.66667	266
10.67500	260
10.68333	252
10.69167	244
10.70000	235
10.70833	225
10.71667	215
10.72500	205
10.73333	195
10.74167	185
10.75000	177
10.75833	169
10.76667	162
10.77500	157
10.78333	154
10.79167	152
10.80000	152
10.80833	154
10.81667	158
10.82500	163
10.83333	169
10.84167	176
10.85000	185
10.85833	194
10.86667	204
10.87500	213
10.88333	222
10.89167	230
10.90000	238
10.90833	245
10.91667	250
10.92500	253
10.93333	255
10.94167	255
10.95000	254
10.95833	250
10.96667	244
10.97500	237
10.98333	229
10.99167	219
11.00000	208
11.00833	196
11.01667	184
11.02500	171
11.03333	159
11.04167	147
11.05000	134
11.05833	123
11.06667	111
11.07500	101
11.08333	91
11.09167	82
11.10000	74
11.10833	68
11.11667	62
11.12500	58
11.13333	54
11.14167	52
11.15000	50
11.15833	50
11.16667	50
11.17500	51
11.18333	53
11.19167	56
11.20000	59
11.20833	62
11.21667	66
11.22500	70
11.23333	75
11.24167	79
11.25000	83
11.25833	87
11.26667	91
11.27500	94
11.28333	97
11.29167	99
11.30000	101
11.30833	102
11.31667	103
11.32500	103
11.33333	102
11.34167	102
11.35000	100
11.35833	98
11.36667	96
11.37500	94
11.38333	92
11.39167	89
11.40000	86
11.40833	84
11.41667	81
11.42500	78
11.43333	76
11.44167	74
11.45000	72
11.45833	71
11.46667	69
11.47500	68
11.48333	68
11.49167	68
11.50000	69
11.50833	69
11.51667	69
11.52500	70
11.53333	71
11.54167	73
11.55000	74
11.55833	75
11.56667	76
11.57500	77
11.58333	78
11.59167	77
11.60000	77
11.60833	76
11.61667	75
11.62500	74
11.63333	72
11.64167	71
11.65000	70
11.65833	68
11.66667	67
11.67500	66
11.68333	65
11.69167	64
11.70000	64
11.70833	64
11.71667	64
11.72500	64
11.73333	65
11.74167	65
11.75000	66
11.75833	67
11.76667	67
11.77500	68
11.78333	68
11.79167	68
11.80000	68
11.80833	68
11.81667	66
11.82500	64
11.83333	62
11.84167	59
11.85000	55
11.85833	51
11.86667	46
11.87500	41
11.88333	36
11.89167	31
11.90000	25
11.90833	20
11.91667	14
11.92500	8
11.93333	2
11.94167	-3
11.95000	-9
11.95833	-14
11.96667	-19
11.97500	-24
11.98333	-28
11.99167	-31
12.00000	-35
12.00833	-38
12.01667	-41
12.02500	-43
12.03333	-45
12.04167	-46
12.05000	-48
12.05833	-49
12.06667	-50
12.07500	-51
12.08333	-51
12.09167	-52
12.10000	-52
12.10833	-52
12.11667	-52
12.12500	-53
12.13333	-52
12.14167	-52
12.15000	-53
12.15833	-53
12.16667	-54
12.17500	-54
12.18333	-54
12.19167	-54
12.20000	-55
12.20833	-55
12.21667	-55
12.22500	-56
12.23333	-57
12.24167	-57
12.25000	-58
12.25833	-59
12.26667	-60
12.27500	-61
12.28333	-62
12.29167	-63
12.30000	-64
12.30833	-65
12.31667	-67
12.32500	-68
12.33333	-70
12.34167	-72
12.35000	-74
12.35833	-76
12.36667	-77
12.37500	-79
12.38333	-80
12.39167	-82
12.40000	-84
12.40833	-86
12.41667	-87
12.42500	-89
12.43333	-90
12.44167	-91
12.45000	-92
12.45833	-93
12.46667	-94
12.47500	-95
12.48333	-96
12.49167	-96
12.50000	-97
12.50833	-97
12.51667	-97
12.52500	-97
12.53333	-97
12.54167	-97
12.55000	-97
12.55833	-97
12.56667	-96
12.57500	-96
12.58333	-95
12.59167	-95
12.60000	-94
12.60833	-93
12.61667	-93
12.62500	-92
12.63333	-91
12.64167	-90
12.65000	-89
12.65833	-88
12.66667	-87
12.67500	-85
12.68333	-84
12.69167	-84
12.70000	-83
12.70833	-82
12.71667	-81
12.72500	-80
12.73333	-79
12.74167	-78
12.75000	-77
12.75833	-77
12.76667	-76
12.77500	-76
12.78333	-76
12.79167	-75
12.80000	-75
12.80833	-75
12.81667	-74
12.82500	-74
12.83333	-74
12.84167	-74
12.85000	-74
12.85833	-73
12.86667	-73
12.87500	-73
12.88333	-73
12.89167	-72
12.90000	-72
12.90833	-72
12.91667	-72
12.92500	-71
12.93333	-71
12.94167	-70
12.95000	-70
12.95833	-69
12.96667	-69
12.97500	-68
12.98333	-67
12.99167	-66
13.00000	-64
13.00833	-63
13.01667	-62
13.02500	-61
13.03333	-60
13.04167	-59
13.05000	-58
13.05833	-57
13.06667	-56
13.07500	-55
13.08333	-54
13.09167	-54
13.10000	-53
13.10833	-53
13.11667	-52
13.12500	-52
13.13333	-52
13.14167	-52
13.15000	-52
13.15833	-52
13.16667	-52
13.17500	-52
13.18333	-52
13.19167	-52
13.20000	-52
13.20833	-52
13.21667	-52
13.22500	-52
13.23333	-53
13.24167	-53
13.25000	-53
13.25833	-53
13.26667	-53
13.27500	-53
13.28333	-53
13.29167	-53
13.30000	-52
13.30833	-52
13.31667	-51
13.32500	-50
13.33333	-50
13.34167	-49
13.35000	-48
13.35833	-47
13.36667	-46
13.37500	-46
13.38333	-45
13.39167	-44
13.40000	-43
13.40833	-42
13.41667	-41
13.42500	-41
13.43333	-40
13.44167	-39
13.45000	-38
13.45833	-37
13.46667	-35
13.47500	-34
13.48333	-33
13.49167	-31
13.50000	-30
13.50833	-28
13.51667	-27
13.52500	-25
13.53333	-23
13.54167	-21
13.55000	-17
13.55833	-14
13.56667	-10
13.57500	-6
13.58333	-2
13.59167	3
13.60000	8
13.60833	15
13.61667	21
13.62500	28
13.63333	36
13.64167	44
13.65000	52
13.65833	61
13.66667	71
13.67500	81
13.68333	90
13.69167	100
13.70000	110
13.70833	119
13.71667	129
13.72500	137
13.73333	146
13.74167	154
13.75000	161
13.75833	168
13.76667	175
13.77500	181
13.78333	187
13.79167	192
13.80000	197
13.80833	202
13.81667	206
13.82500	211
13.83333	216
13.84167	221
13.85000	226
13.85833	231
13.86667	237
13.87500	243
13.88333	250
13.89167	257
13.90000	265
13.90833	272
13.91667	279
13.92500	286
13.93333	292
13.94167	298
13.95000	304
13.95833	308
13.96667	312
13.97500	315
13.98333	317
13.99167	317
14.00000	316
14.00833	315
14.01667	312
14.02500	308
14.03333	303
14.04167	297
14.05000	291
14.05833	284
14.06667	276
14.07500	268
14.08333	260
14.09167	251
14.10000	243
14.10833	234
14.11667	226
14.12500	217
14.13333	209
14.14167	201
14.15000	194
14.15833	187
14.16667	181
14.17500	175
14.18333	169
14.19167	164
14.20000	160
14.20833	156
14.21667	153
14.22500	150
14.23333	147
14.24167	145
14.25000	143
14.25833	141
14.26667	139
14.27500	138
14.28333	138
14.29167	137
14.30000	137
14.30833	138
14.31667	138
14.32500	138
14.33333	138
14.34167	139
14.35000	140
14.35833	141
14.36667	142
14.37500	143
14.38333	145
14.39167	146
14.40000	148
14.40833	150
14.41667	152
14.42500	154
14.43333	155
14.44167	156
14.45000	158
14.45833	159
14.46667	160
14.47500	162
14.48333	163
14.49167	165
14.50000	166
14.50833	167
14.51667	168
14.52500	169
14.53333	170
14.54167	171
14.55000	172
14.55833	173
14.56667	174
14.57500	174
14.58333	174
14.59167	175
14.60000	175
14.60833	176
14.61667	176
14.62500	176
14.63333	176
14.64167	175
14.65000	175
14.65833	175
14.66667	175
14.67500	174
14.68333	174
14.69167	174
14.70000	173
14.70833	173
14.71667	173
14.72500	173
14.73333	172
14.74167	172
14.75000	172
14.75833	171
14.76667	171
14.77500	171
14.78333	171
14.79167	171
14.80000	171
14.80833	171
14.81667	170
14.82500	170
14.83333	170
14.84167	171
14.85000	171
14.85833	171
14.86667	172
14.87500	172
14.88333	171
14.89167	171
14.90000	171
14.90833	171
14.91667	172
14.92500	172
14.93333	172
14.94167	172
14.95000	173
14.95833	173
14.96667	174
14.97500	174
14.98333	174
14.99167	175
15.00000	175
15.00833	175
15.01667	176
15.02500	178
15.03333	180
15.04167	181
15.05000	184
15.05833	186
15.06667	189
15.07500	193
15.08333	197
15.09167	201
15.10000	206
15.10833	212
15.11667	219
15.12500	226
15.13333	234
15.14167	243
15.15000	253
15.15833	263
15.16667	274
15.17500	286
15.18333	297
15.19167	308
15.20000	320
15.20833	331
15.21667	343
15.22500	353
15.23333	364
15.24167	374
15.25000	382
15.25833	390
15.26667	396
15.27500	401
15.28333	404
15.29167	407
15.30000	407
15.30833	406
15.31667	403
15.32500	398
15.33333	392
15.34167	385
15.35000	377
15.35833	367
15.36667	356
15.37500	345
15.38333	333
15.39167	319
15.40000	306
15.40833	292
15.41667	278
15.42500	264
15.43333	251
15.44167	237
15.45000	224
15.45833	211
15.46667	198
15.47500	186
15.48333	175
15.49167	164
15.50000	153
15.50833	143
15.51667	134
15.52500	125
15.53333	117
15.54167	109
15.55000	102
15.55833	96
15.56667	90
15.57500	84
15.58333	78
15.59167	73
15.60000	68
15.60833	64
15.61667	59
15.62500	56
15.63333	52
15.64167	49
15.65000	46
15.65833	43
15.66667	41
15.67500	39
15.68333	37
15.69167	35
15.70000	34
15.70833	33
15.71667	32
15.72500	31
15.73333	30
15.74167	30
15.75000	29
15.75833	29
15.76667	29
15.77500	29
15.78333	30
15.79167	30
15.80000	30
15.80833	31
15.81667	32
15.82500	32
15.83333	33
15.84167	34
15.85000	35
15.85833	37
15.86667	39
15.87500	41
15.88333	43
15.89167	45
15.90000	48
15.90833	51
15.91667	55
15.92500	59
15.93333	64
15.94167	69
15.95000	75
15.95833	82
15.96667	90
15.97500	99
15.98333	108
15.99167	119
16.00000	130
16.00833	141
16.01667	154
16.02500	167
16.03333	181
16.04167	196
16.05000	211
16.05833	226
16.06667	241
16.07500	257
16.08333	271
16.09167	286
16.10000	299
16.10833	313
16.11667	325
16.12500	336
16.13333	346
16.14167	354
16.15000	361
16.15833	367
16.16667	370
16.17500	372
16.18333	373
16.19167	372
16.20000	370
16.20833	366
16.21667	361
16.22500	355
16.23333	348
16.24167	340
16.25000	332
16.25833	324
16.26667	315
16.27500	306
16.28333	298
16.29167	289
16.30000	282
16.30833	274
16.31667	268
16.32500	263
16.33333	258
16.34167	255
16.35000	252
16.35833	251
16.36667	251
16.37500	252
16.38333	255
16.39167	259
16.40000	265
16.40833	272
16.41667	280
16.42500	290
16.43333	302
16.44167	315
16.45000	328
16.45833	344
16.46667	361
16.47500	379
16.48333	400
16.49167	421
16.50000	444
16.50833	468
16.51667	494
16.52500	520
16.53333	548
16.54167	576
16.55000	605
16.55833	634
16.56667	663
16.57500	692
16.58333	720
16.59167	747
16.60000	773
16.60833	798
16.61667	820
16.62500	841
16.63333	859
16.64167	874
16.65000	886
16.65833	895
16.66667	901
16.67500	903
16.68333	903
16.69167	898
16.70000	891
16.70833	881
16.71667	867
16.72500	851
16.73333	831
16.74167	810
16.75000	786
16.75833	760
16.76667	732
16.77500	704
16.78333	675
16.79167	645
16.80000	615
16.80833	585
16.81667	555
16.82500	526
16.83333	497
16.84167	469
16.85000	443
16.85833	417
16.86667	392
16.87500	368
16.88333	345
16.89167	324
16.90000	304
16.90833	285
16.91667	268
16.92500	252
16.93333	237
16.94167	223
16.95000	210
16.95833	198
16.96667	187
16.97500	177
16.98333	168
16.99167	159
17.00000	151
17.00833	144
17.01667	138
17.02500	132
17.03333	127
17.04167	122
17.05000	118
17.05833	114
17.06667	110
17.07500	106
17.08333	103
17.09167	100
17.10000	97
17.10833	94
17.11667	91
17.12500	89
17.13333	87
17.14167	86
17.15000	84
17.15833	83
17.16667	81
17.17500	80
17.18333	78
17.19167	76
17.20000	75
17.20833	74
17.21667	74
17.22500	73
17.23333	72
17.24167	72
17.25000	72
17.25833	72
17.26667	72
17.27500	72
17.28333	71
17.29167	71
17.30000	71
17.30833	71
17.31667	71
17.32500	71
17.33333	71
17.34167	71
17.35000	71
17.35833	71
17.36667	71
17.37500	72
17.38333	73
17.39167	73
17.40000	74
17.40833	74
17.41667	75
17.42500	75
17.43333	76
17.44167	77
17.45000	78
17.45833	78
17.46667	79
17.47500	80
17.48333	81
17.49167	81
17.50000	82
17.50833	84
17.51667	85
17.52500	87
17.53333	88
17.54167	90
17.55000	92
17.55833	94
17.56667	96
17.57500	98
17.58333	100
17.59167	102
17.60000	104
17.60833	106
17.61667	109
17.62500	112
17.63333	115
17.64167	119
17.65000	123
17.65833	128
17.66667	133
17.67500	138
17.68333	144
17.69167	151
17.70000	158
17.70833	166
17.71667	174
17.72500	183
17.73333	194
17.74167	206
17.75000	218
17.75833	232
17.76667	247
17.77500	264
17.78333	282
17.79167	303
17.80000	326
17.80833	351
17.81667	379
17.82500	409
17.83333	442
17.84167	479
17.85000	519
17.85833	564
17.86667	612
17.87500	665
17.88333	723
17.89167	787
17.90000	857
17.90833	933
17.91667	1016
17.92500	1105
17.93333	1202
17.94167	1306
17.95000	1417
17.95833	1534
17.96667	1659
17.97500	1790
17.98333	1927
17.99167	2070
18.00000	2217
18.00833	2369
18.01667	2523
18.02500	2678
18.03333	2835
18.04167	2990
18.05000	3142
18.05833	3292
18.06667	3435
18.07500	3572
18.08333	3701
18.09167	3819
18.10000	3927
18.10833	4022
18.11667	4103
18.12500	4170
18.13333	4221
18.14167	4256
18.15000	4276
18.15833	4279
18.16667	4266
18.17500	4237
18.18333	4193
18.19167	4134
18.20000	4062
18.20833	3977
18.21667	3881
18.22500	3774
18.23333	3659
18.24167	3535
18.25000	3405
18.25833	3270
18.26667	3132
18.27500	2991
18.28333	2850
18.29167	2708
18.30000	2568
18.30833	2429
18.31667	2293
18.32500	2162
18.33333	2034
18.34167	1911
18.35000	1793
18.35833	1680
18.36667	1573
18.37500	1471
18.38333	1375
18.39167	1284
18.40000	1199
18.40833	1120
18.41667	1046
18.42500	978
18.43333	914
18.44167	855
18.45000	801
18.45833	751
18.46667	704
18.47500	662
18.48333	623
18.49167	587
18.50000	554
18.50833	524
18.51667	497
18.52500	472
18.53333	449
18.54167	428
18.55000	408
18.55833	390
18.56667	374
18.57500	360
18.58333	347
18.59167	335
18.60000	325
18.60833	316
18.61667	307
18.62500	300
18.63333	294
18.64167	290
18.65000	286
18.65833	283
18.66667	282
18.67500	281
18.68333	281
18.69167	282
18.70000	284
18.70833	286
18.71667	289
18.72500	294
18.73333	298
18.74167	304
18.75000	310
18.75833	317
18.76667	325
18.77500	332
18.78333	341
18.79167	350
18.80000	358
18.80833	368
18.81667	377
18.82500	387
18.83333	397
18.84167	406
18.85000	415
18.85833	424
18.86667	432
18.87500	440
18.88333	447
18.89167	454
18.90000	461
18.90833	466
18.91667	471
18.92500	474
18.93333	477
18.94167	478
18.95000	478
18.95833	477
18.96667	475
18.97500	473
18.98333	470
18.99167	466
19.00000	460
19.00833	454
19.01667	447
19.02500	440
19.03333	432
19.04167	424
19.05000	415
19.05833	406
19.06667	396
19.07500	387
19.08333	377
19.09167	367
19.10000	358
19.10833	348
19.11667	338
19.12500	329
19.13333	320
19.14167	311
19.15000	302
19.15833	294
19.16667	287
19.17500	279
19.18333	273
19.19167	266
19.20000	260
19.20833	254
19.21667	249
19.22500	243
19.23333	239
19.24167	235
19.25000	231
19.25833	227
19.26667	224
19.27500	221
19.28333	219
19.29167	217
19.30000	215
19.30833	214
19.31667	212
19.32500	211
19.33333	211
19.34167	210
19.35000	209
19.35833	209
19.36667	209
19.37500	209
19.38333	209
19.39167	210
19.40000	210
19.40833	211
19.41667	211
19.42500	211
19.43333	212
19.44167	212
19.45000	213
19.45833	213
19.46667	214
19.47500	215
19.48333	215
19.49167	216
19.50000	217
19.50833	218
19.51667	219
19.52500	220
19.53333	221
19.54167	222
19.55000	223
19.55833	224
19.56667	224
19.57500	225
19.58333	226
19.59167	226
19.60000	227
19.60833	228
19.61667	228
19.62500	229
19.63333	230
19.64167	231
19.65000	232
19.65833	232
19.66667	233
19.67500	233
19.68333	234
19.69167	234
19.70000	235
19.70833	235
19.71667	236
19.72500	236
19.73333	236
19.74167	236
19.75000	237
19.75833	237
19.76667	237
19.77500	237
19.78333	238
19.79167	238
19.80000	239
19.80833	239
19.81667	239
19.82500	240
19.83333	241
19.84167	241
19.85000	242
19.85833	243
19.86667	243
19.87500	244
19.88333	244
19.89167	244
19.90000	245
19.90833	246
19.91667	246
19.92500	247
19.93333	248
19.94167	249
19.95000	250
19.95833	250
19.96667	251
19.97500	252
19.98333	252
19.99167	252
20.00000	253
20.00833	254
20.01667	254
20.02500	255
20.03333	256
20.04167	256
20.05000	257
20.05833	258
20.06667	259
20.07500	260
20.08333	261
20.09167	262
20.10000	263
20.10833	264
20.11667	265
20.12500	266
20.13333	267
20.14167	268
20.15000	268
20.15833	269
20.16667	270
20.17500	270
20.18333	271
20.19167	272
20.20000	273
20.20833	274
20.21667	275
20.22500	276
20.23333	277
20.24167	278
20.25000	280
20.25833	281
20.26667	283
20.27500	284
20.28333	285
20.29167	286
20.30000	287
20.30833	288
20.31667	290
20.32500	292
20.33333	293
20.34167	295
20.35000	297
20.35833	298
20.36667	300
20.37500	303
20.38333	305
20.39167	308
20.40000	311
20.40833	313
20.41667	316
20.42500	319
20.43333	322
20.44167	326
20.45000	330
20.45833	334
20.46667	339
20.47500	343
20.48333	348
20.49167	352
20.50000	357
20.50833	363
20.51667	369
20.52500	376
20.53333	383
20.54167	391
20.55000	399
20.55833	407
20.56667	416
20.57500	426
20.58333	437
20.59167	449
20.60000	461
20.60833	474
20.61667	488
20.62500	503
20.63333	519
20.64167	536
20.65000	554
20.65833	573
20.66667	594
20.67500	615
20.68333	638
20.69167	663
20.70000	689
20.70833	716
20.71667	744
20.72500	773
20.73333	804
20.74167	836
20.75000	869
20.75833	903
20.76667	937
20.77500	973
20.78333	1010
20.79167	1048
20.80000	1086
20.80833	1124
20.81667	1162
20.82500	1201
20.83333	1239
20.84167	1278
20.85000	1316
20.85833	1353
20.86667	1390
20.87500	1426
20.88333	1461
20.89167	1497
20.90000	1531
20.90833	1564
20.91667	1597
20.92500	1628
20.93333	1659
20.94167	1688
20.95000	1717
20.95833	1746
20.96667	1774
20.97500	1802
20.98333	1829
20.99167	1856
21.00000	1884
21.00833	1911
21.01667	1939
21.02500	1967
21.03333	1997
21.04167	2028
21.05000	2061
21.05833	2096
21.06667	2133
21.07500	2173
21.08333	2216
21.09167	2262
21.10000	2313
21.10833	2368
21.11667	2429
21.12500	2494
21.13333	2566
21.14167	2644
21.15000	2730
21.15833	2823
21.16667	2925
21.17500	3036
21.18333	3157
21.19167	3288
21.20000	3430
21.20833	3584
21.21667	3750
21.22500	3929
21.23333	4121
21.24167	4327
21.25000	4547
21.25833	4782
21.26667	5031
21.27500	5294
21.28333	5572
21.29167	5864
21.30000	6170
21.30833	6489
21.31667	6820
21.32500	7163
21.33333	7516
21.34167	7877
21.35000	8246
21.35833	8620
21.36667	8998
21.37500	9377
21.38333	9756
21.39167	10133
21.40000	10504
21.40833	10869
21.41667	11223
21.42500	11566
21.43333	11894
21.44167	12206
21.45000	12499
21.45833	12771
21.46667	13020
21.47500	13244
21.48333	13441
21.49167	13610
21.50000	13751
21.50833	13862
21.51667	13942
21.52500	13991
21.53333	14009
21.54167	13996
21.55000	13952
21.55833	13877
21.56667	13774
21.57500	13641
21.58333	13482
21.59167	13296
21.60000	13086
21.60833	12854
21.61667	12601
21.62500	12328
21.63333	12039
21.64167	11734
21.65000	11415
21.65833	11086
21.66667	10748
21.67500	10403
21.68333	10053
21.69167	9699
21.70000	9344
21.70833	8989
21.71667	8636
21.72500	8285
21.73333	7938
21.74167	7597
21.75000	7262
21.75833	6935
21.76667	6616
21.77500	6306
21.78333	6005
21.79167	5714
21.80000	5434
21.80833	5164
21.81667	4906
21.82500	4658
21.83333	4420
21.84167	4194
21.85000	3978
21.85833	3772
21.86667	3577
21.87500	3392
21.88333	3216
21.89167	3050
21.90000	2894
21.90833	2746
21.91667	2606
21.92500	2474
21.93333	2349
21.94167	2232
21.95000	2122
21.95833	2018
21.96667	1921
21.97500	1829
21.98333	1743
21.99167	1662
22.00000	1586
22.00833	1514
22.01667	1447
22.02500	1384
22.03333	1325
22.04167	1269
22.05000	1218
22.05833	1169
22.06667	1124
22.07500	1082
22.08333	1043
22.09167	1006
22.10000	972
22.10833	940
22.11667	911
22.12500	883
22.13333	858
22.14167	834
22.15000	811
22.15833	791
22.16667	771
22.17500	754
22.18333	738
22.19167	724
22.20000	711
22.20833	699
22.21667	688
22.22500	678
22.23333	670
22.24167	662
22.25000	655
22.25833	649
22.26667	643
22.27500	638
22.28333	634
22.29167	630
22.30000	627
22.30833	624
22.31667	621
22.32500	619
22.33333	617
22.34167	615
22.35000	614
22.35833	613
22.36667	611
22.37500	610
22.38333	609
22.39167	609
22.40000	608
22.40833	607
22.41667	606
22.42500	605
22.43333	603
22.44167	602
22.45000	600
22.45833	597
22.46667	595
22.47500	592
22.48333	589
22.49167	586
22.50000	582
22.50833	578
22.51667	574
22.52500	570
22.53333	566
22.54167	561
22.55000	556
22.55833	550
22.56667	545
22.57500	540
22.58333	534
22.59167	528
22.60000	521
22.60833	515
22.61667	508
22.62500	502
22.63333	495
22.64167	489
22.65000	482
22.65833	475
22.66667	468
22.67500	461
22.68333	455
22.69167	449
22.70000	442
22.70833	437
22.71667	431
22.72500	426
22.73333	420
22.74167	415
22.75000	410
22.75833	405
22.76667	401
22.77500	397
22.78333	394
22.79167	391
22.80000	388
22.80833	385
22.81667	383
22.82500	381
22.83333	379
22.84167	378
22.85000	377
22.85833	376
22.86667	375
22.87500	375
22.88333	376
22.89167	377
22.90000	378
22.90833	379
22.91667	380
22.92500	382
22.93333	383
22.94167	385
22.95000	387
22.95833	389
22.96667	392
22.97500	394
22.98333	397
22.99167	399
23.00000	402
23.00833	405
23.01667	408
23.02500	411
23.03333	414
23.04167	417
23.05000	419
23.05833	421
23.06667	424
23.07500	426
23.08333	428
23.09167	430
23.10000	433
23.10833	435
23.11667	437
23.12500	439
23.13333	440
23.14167	442
23.15000	444
23.15833	445
23.16667	446
23.17500	448
23.18333	449
23.19167	450
23.20000	451
23.20833	451
23.21667	452
23.22500	452
23.23333	452
23.24167	453
23.25000	453
23.25833	453
23.26667	453
23.27500	453
23.28333	453
23.29167	453
23.30000	453
23.30833	453
23.31667	452
23.32500	451
23.33333	451
23.34167	450
23.35000	449
23.35833	449
23.36667	448
23.37500	447
23.38333	447
23.39167	446
23.40000	446
23.40833	445
23.41667	445
23.42500	444
23.43333	444
23.44167	443
23.45000	443
23.45833	442
23.46667	442
23.47500	441
23.48333	440
23.49167	439
23.50000	438
23.50833	438
23.51667	438
23.52500	438
23.53333	437
23.54167	437
23.55000	437
23.55833	437
23.56667	437
23.57500	437
23.58333	437
23.59167	436
23.60000	436
23.60833	436
23.61667	436
23.62500	437
23.63333	437
23.64167	437
23.65000	436
23.65833	436
23.66667	436
23.67500	436
23.68333	436
23.69167	436
23.70000	436
23.70833	436
23.71667	436
23.72500	436
23.73333	436
23.74167	437
23.75000	437
23.75833	437
23.76667	437
23.77500	437
23.78333	437
23.79167	436
23.80000	436
23.80833	436
23.81667	436
23.82500	436
23.83333	436
23.84167	437
23.85000	437
23.85833	437
23.86667	437
23.87500	437
23.88333	437
23.89167	437
23.90000	436
23.90833	436
23.91667	436
23.92500	436
23.93333	436
23.94167	436
23.95000	436
23.95833	436
23.96667	435
23.97500	435
23.98333	434
23.99167	434
24.00000	435
24.00833	435
24.01667	435
24.02500	435
24.03333	435
24.04167	435
24.05000	435
24.05833	435
24.06667	434
24.07500	434
24.08333	434
24.09167	433
24.10000	433
24.10833	432
24.11667	432
24.12500	431
24.13333	431
24.14167	430
24.15000	429
24.15833	428
24.16667	427
24.17500	426
24.18333	425
24.19167	424
24.20000	423
24.20833	422
24.21667	420
24.22500	419
24.23333	417
24.24167	415
24.25000	413
24.25833	410
24.26667	408
24.27500	406
24.28333	404
24.29167	403
24.30000	401
24.30833	399
24.31667	397
24.32500	396
24.33333	394
24.34167	392
24.35000	390
24.35833	388
24.36667	385
24.37500	383
24.38333	381
24.39167	378
24.40000	376
24.40833	375
24.41667	373
24.42500	371
24.43333	370
24.44167	368
24.45000	366
24.45833	365
24.46667	363
24.47500	361
24.48333	360
24.49167	358
24.50000	357
24.50833	356
24.51667	355
24.52500	354
24.53333	353
24.54167	352
24.55000	351
24.55833	351
24.56667	350
24.57500	349
24.58333	349
24.59167	348
24.60000	348
24.60833	348
24.61667	347
24.62500	347
24.63333	347
24.64167	347
24.65000	347
24.65833	346
24.66667	346
24.67500	346
24.68333	346
24.69167	346
24.70000	347
24.70833	347
24.71667	347
24.72500	348
24.73333	348
24.74167	349
24.75000	349
24.75833	349
24.76667	350
24.77500	350
24.78333	350
24.79167	350
24.80000	351
24.80833	351
24.81667	351
24.82500	352
24.83333	352
24.84167	352
24.85000	352
24.85833	352
24.86667	352
24.87500	352
24.88333	352
24.89167	352
24.90000	352
24.90833	352
24.91667	352
24.92500	353
24.93333	353
24.94167	353
24.95000	352
24.95833	352
24.96667	352
24.97500	352
24.98333	352
24.99167	352
25.00000	352
25.00833	352
25.01667	351
25.02500	351
25.03333	351
25.04167	351
25.05000	351
25.05833	351
25.06667	351
25.07500	351
25.08333	350
25.09167	350
25.10000	350
25.10833	349
25.11667	349
25.12500	348
25.13333	348
25.14167	347
25.15000	347
25.15833	347
25.16667	346
25.17500	346
25.18333	345
25.19167	345
25.20000	344
25.20833	344
25.21667	344
25.22500	343
25.23333	343
25.24167	343
25.25000	343
25.25833	342
25.26667	342
25.27500	342
25.28333	341
25.29167	341
25.30000	341
25.30833	340
25.31667	340
25.32500	340
25.33333	340
25.34167	339
25.35000	339
25.35833	339
25.36667	338
25.37500	338
25.38333	338
25.39167	338
25.40000	338
25.40833	338
25.41667	338
25.42500	338
25.43333	338
25.44167	338
25.45000	338
25.45833	338
25.46667	338
25.47500	338
25.48333	339
25.49167	339
25.50000	339
25.50833	339
25.51667	340
25.52500	340
25.53333	340
25.54167	341
25.55000	341
25.55833	342
25.56667	342
25.57500	343
25.58333	344
25.59167	345
25.60000	345
25.60833	346
25.61667	346
25.62500	346
25.63333	347
25.64167	348
25.65000	348
25.65833	349
25.66667	350
25.67500	350
25.68333	350
25.69167	351
25.70000	351
25.70833	352
25.71667	353
25.72500	353
25.73333	354
25.74167	355
25.75000	355
25.75833	356
25.76667	356
25.77500	356
25.78333	357
25.79167	358
25.80000	358
25.80833	359
25.81667	359
25.82500	360
25.83333	361
25.84167	361
25.85000	362
25.85833	363
25.86667	364
25.87500	365
25.88333	366
25.89167	367
25.90000	369
25.90833	371
25.91667	373
25.92500	375
25.93333	377
25.94167	380
25.95000	383
25.95833	386
25.96667	389
25.97500	392
25.98333	395
25.99167	398
26.00000	402
26.00833	407
26.01667	411
26.02500	416
26.03333	421
26.04167	427
26.05000	433
26.05833	439
26.06667	445
26.07500	452
26.08333	460
26.09167	469
26.10000	478
26.10833	487
26.11667	498
26.12500	508
26.13333	520
26.14167	532
26.15000	544
26.15833	558
26.16667	573
26.17500	588
26.18333	604
26.19167	621
26.20000	639
26.20833	657
26.21667	677
26.22500	698
26.23333	720
26.24167	743
26.25000	768
26.25833	793
26.26667	820
26.27500	847
26.28333	874
26.29167	903
26.30000	933
26.30833	963
26.31667	995
26.32500	1027
26.33333	1060
26.34167	1093
26.35000	1127
26.35833	1161
26.36667	1195
26.37500	1228
26.38333	1262
26.39167	1296
26.40000	1329
26.40833	1362
26.41667	1395
26.42500	1427
26.43333	1457
26.44167	1486
26.45000	1513
26.45833	1539
26.46667	1563
26.47500	1586
26.48333	1607
26.49167	1625
26.50000	1642
26.50833	1657
26.51667	1669
26.52500	1679
26.53333	1687
26.54167	1692
26.55000	1694
26.55833	1694
26.56667	1691
26.57500	1685
26.58333	1678
26.59167	1668
26.60000	1656
26.60833	1641
26.61667	1624
26.62500	1606
26.63333	1586
26.64167	1563
26.65000	1540
26.65833	1514
26.66667	1487
26.67500	1459
26.68333	1430
26.69167	1399
26.70000	1367
26.70833	1335
26.71667	1303
26.72500	1270
26.73333	1237
26.74167	1204
26.75000	1170
26.75833	1137
26.76667	1104
26.77500	1072
26.78333	1040
26.79167	1008
26.80000	977
26.80833	946
26.81667	917
26.82500	888
26.83333	860
26.84167	832
26.85000	806
26.85833	780
26.86667	755
26.87500	730
26.88333	707
26.89167	685
26.90000	664
26.90833	644
26.91667	625
26.92500	606
26.93333	589
26.94167	572
26.95000	555
26.95833	540
26.96667	525
26.97500	511
26.98333	498
26.99167	486
27.00000	474
27.00833	462
27.01667	451
27.02500	440
27.03333	430
27.04167	420
27.05000	411
27.05833	402
27.06667	394
27.07500	385
27.08333	377
27.09167	370
27.10000	362
27.10833	355
27.11667	348
27.12500	342
27.13333	336
27.14167	330
27.15000	324
27.15833	319
27.16667	313
27.17500	308
27.18333	303
27.19167	298
27.20000	293
27.20833	289
27.21667	284
27.22500	279
27.23333	275
27.24167	270
27.25000	266
27.25833	262
27.26667	258
27.27500	254
27.28333	251
27.29167	248
27.30000	244
27.30833	241
27.31667	237
27.32500	234
27.33333	231
27.34167	228
27.35000	225
27.35833	222
27.36667	219
27.37500	216
27.38333	213
27.39167	211
27.40000	208
27.40833	205
27.41667	202
27.42500	200
27.43333	198
27.44167	195
27.45000	193
27.45833	190
27.46667	188
27.47500	186
27.48333	185
27.49167	183
27.50000	181
27.50833	179
27.51667	177
27.52500	175
27.53333	174
27.54167	172
27.55000	171
27.55833	169
27.56667	167
27.57500	165
27.58333	164
27.59167	162
27.60000	161
27.60833	160
27.61667	159
27.62500	157
27.63333	156
27.64167	155
27.65000	153
27.65833	152
27.66667	151
27.67500	150
27.68333	149
27.69167	149
27.70000	148
27.70833	147
27.71667	146
27.72500	145
27.73333	145
27.74167	144
27.75000	143
27.75833	142
27.76667	141
27.77500	140
27.78333	139
27.79167	138
27.80000	138
27.80833	137
27.81667	137
27.82500	136
27.83333	135
27.84167	134
27.85000	133
27.85833	133
27.86667	131
27.87500	130
27.88333	130
27.89167	129
27.90000	129
27.90833	128
27.91667	128
27.92500	127
27.93333	127
27.94167	126
27.95000	126
27.95833	125
27.96667	125
27.97500	125
27.98333	125
27.99167	124
28.00000	123

