R.Time (min)	Intensity
0.00000	-51
0.00833	-51
0.01667	-6
0.02500	-1
0.03333	-1
0.04167	-2
0.05000	-2
0.05833	-3
0.06667	-4
0.07500	-5
0.08333	-5
0.09167	-6
0.10000	-7
0.10833	-7
0.11667	-8
0.12500	-9
0.13333	-10
0.14167	-11
0.15000	-12
0.15833	-12
0.16667	-13
0.17500	-13
0.18333	-14
0.19167	-14
0.20000	-15
0.20833	-15
0.21667	-15
0.22500	-15
0.23333	-15
0.24167	-16
0.25000	-16
0.25833	-16
0.26667	-17
0.27500	-18
0.28333	-18
0.29167	-19
0.30000	-20
0.30833	-21
0.31667	-22
0.32500	-22
0.33333	-23
0.34167	-24
0.35000	-25
0.35833	-25
0.36667	-25
0.37500	-25
0.38333	-26
0.39167	-26
0.40000	-26
0.40833	-27
0.41667	-28
0.42500	-29
0.43333	-29
0.44167	-30
0.45000	-30
0.45833	-31
0.46667	-32
0.47500	-32
0.48333	-33
0.49167	-34
0.50000	-34
0.50833	-35
0.51667	-36
0.52500	-37
0.53333	-38
0.54167	-39
0.55000	-40
0.55833	-41
0.56667	-41
0.57500	-42
0.58333	-43
0.59167	-44
0.60000	-44
0.60833	-45
0.61667	-46
0.62500	-46
0.63333	-47
0.64167	-48
0.65000	-48
0.65833	-49
0.66667	-49
0.67500	-50
0.68333	-51
0.69167	-51
0.70000	-51
0.70833	-52
0.71667	-53
0.72500	-53
0.73333	-54
0.74167	-55
0.75000	-56
0.75833	-56
0.76667	-57
0.77500	-58
0.78333	-58
0.79167	-59
0.80000	-59
0.80833	-59
0.81667	-60
0.82500	-60
0.83333	-61
0.84167	-61
0.85000	-62
0.85833	-63
0.86667	-63
0.87500	-64
0.88333	-64
0.89167	-65
0.90000	-65
0.90833	-65
0.91667	-66
0.92500	-66
0.93333	-67
0.94167	-67
0.95000	-68
0.95833	-68
0.96667	-69
0.97500	-69
0.98333	-70
0.99167	-71
1.00000	-72
1.00833	-72
1.01667	-73
1.02500	-73
1.03333	-74
1.04167	-74
1.05000	-74
1.05833	-75
1.06667	-75
1.07500	-76
1.08333	-77
1.09167	-78
1.10000	-78
1.10833	-78
1.11667	-79
1.12500	-79
1.13333	-80
1.14167	-80
1.15000	-80
1.15833	-80
1.16667	-81
1.17500	-81
1.18333	-81
1.19167	-82
1.20000	-82
1.20833	-83
1.21667	-83
1.22500	-84
1.23333	-84
1.24167	-85
1.25000	-85
1.25833	-86
1.26667	-87
1.27500	-87
1.28333	-87
1.29167	-87
1.30000	-88
1.30833	-88
1.31667	-89
1.32500	-89
1.33333	-89
1.34167	-89
1.35000	-89
1.35833	-89
1.36667	-90
1.37500	-91
1.38333	-91
1.39167	-92
1.40000	-93
1.40833	-93
1.41667	-94
1.42500	-94
1.43333	-94
1.44167	-94
1.45000	-94
1.45833	-95
1.46667	-95
1.47500	-96
1.48333	-96
1.49167	-96
1.50000	-97
1.50833	-97
1.51667	-97
1.52500	-97
1.53333	-97
1.54167	-97
1.55000	-97
1.55833	-98
1.56667	-98
1.57500	-99
1.58333	-99
1.59167	-99
1.60000	-100
1.60833	-100
1.61667	-100
1.62500	-100
1.63333	-101
1.64167	-101
1.65000	-102
1.65833	-102
1.66667	-102
1.67500	-103
1.68333	-103
1.69167	-103
1.70000	-103
1.70833	-103
1.71667	-103
1.72500	-103
1.73333	-103
1.74167	-103
1.75000	-104
1.75833	-104
1.76667	-104
1.77500	-105
1.78333	-105
1.79167	-105
1.80000	-106
1.80833	-105
1.81667	-105
1.82500	-106
1.83333	-106
1.84167	-106
1.85000	-106
1.85833	-106
1.86667	-106
1.87500	-106
1.88333	-107
1.89167	-107
1.90000	-107
1.90833	-107
1.91667	-108
1.92500	-108
1.93333	-108
1.94167	-109
1.95000	-109
1.95833	-109
1.96667	-109
1.97500	-109
1.98333	-110
1.99167	-110
2.00000	-110
2.00833	-110
2.01667	-110
2.02500	-111
2.03333	-111
2.04167	-110
2.05000	-110
2.05833	-110
2.06667	-110
2.07500	-111
2.08333	-111
2.09167	-110
2.10000	-110
2.10833	-110
2.11667	-110
2.12500	-110
2.13333	-110
2.14167	-110
2.15000	-110
2.15833	-110
2.16667	-110
2.17500	-110
2.18333	-109
2.19167	-109
2.20000	-109
2.20833	-108
2.21667	-108
2.22500	-108
2.23333	-108
2.24167	-107
2.25000	-107
2.25833	-107
2.26667	-106
2.27500	-105
2.28333	-104
2.29167	-103
2.30000	-101
2.30833	-100
2.31667	-98
2.32500	-96
2.33333	-95
2.34167	-93
2.35000	-91
2.35833	-89
2.36667	-87
2.37500	-84
2.38333	-82
2.39167	-79
2.40000	-77
2.40833	-74
2.41667	-71
2.42500	-68
2.43333	-65
2.44167	-61
2.45000	-57
2.45833	-52
2.46667	-48
2.47500	-43
2.48333	-38
2.49167	-33
2.50000	-27
2.50833	-21
2.51667	-15
2.52500	-8
2.53333	-2
2.54167	6
2.55000	14
2.55833	22
2.56667	31
2.57500	40
2.58333	50
2.59167	60
2.60000	71
2.60833	83
2.61667	95
2.62500	107
2.63333	121
2.64167	136
2.65000	151
2.65833	167
2.66667	183
2.67500	201
2.68333	219
2.69167	239
2.70000	259
2.70833	280
2.71667	303
2.72500	327
2.73333	352
2.74167	378
2.75000	406
2.75833	436
2.76667	467
2.77500	499
2.78333	533
2.79167	569
2.80000	607
2.80833	646
2.81667	688
2.82500	732
2.83333	779
2.84167	828
2.85000	880
2.85833	934
2.86667	990
2.87500	1050
2.88333	1112
2.89167	1178
2.90000	1247
2.90833	1320
2.91667	1397
2.92500	1477
2.93333	1561
2.94167	1649
2.95000	1741
2.95833	1838
2.96667	1938
2.97500	2043
2.98333	2152
2.99167	2266
3.00000	2384
3.00833	2507
3.01667	2635
3.02500	2767
3.03333	2904
3.04167	3046
3.05000	3192
3.05833	3342
3.06667	3497
3.07500	3655
3.08333	3818
3.09167	3983
3.10000	4153
3.10833	4326
3.11667	4501
3.12500	4679
3.13333	4858
3.14167	5039
3.15000	5221
3.15833	5404
3.16667	5587
3.17500	5769
3.18333	5950
3.19167	6130
3.20000	6308
3.20833	6482
3.21667	6653
3.22500	6820
3.23333	6983
3.24167	7140
3.25000	7291
3.25833	7437
3.26667	7574
3.27500	7705
3.28333	7827
3.29167	7940
3.30000	8043
3.30833	8138
3.31667	8222
3.32500	8295
3.33333	8358
3.34167	8411
3.35000	8452
3.35833	8481
3.36667	8500
3.37500	8506
3.38333	8501
3.39167	8484
3.40000	8456
3.40833	8417
3.41667	8367
3.42500	8306
3.43333	8234
3.44167	8152
3.45000	8060
3.45833	7959
3.46667	7848
3.47500	7729
3.48333	7602
3.49167	7467
3.50000	7326
3.50833	7179
3.51667	7026
3.52500	6867
3.53333	6704
3.54167	6536
3.55000	6365
3.55833	6190
3.56667	6013
3.57500	5835
3.58333	5655
3.59167	5474
3.60000	5294
3.60833	5113
3.61667	4933
3.62500	4753
3.63333	4576
3.64167	4400
3.65000	4227
3.65833	4056
3.66667	3888
3.67500	3723
3.68333	3561
3.69167	3404
3.70000	3250
3.70833	3100
3.71667	2954
3.72500	2813
3.73333	2676
3.74167	2544
3.75000	2416
3.75833	2293
3.76667	2174
3.77500	2059
3.78333	1949
3.79167	1844
3.80000	1743
3.80833	1646
3.81667	1554
3.82500	1466
3.83333	1382
3.84167	1302
3.85000	1226
3.85833	1154
3.86667	1086
3.87500	1021
3.88333	960
3.89167	902
3.90000	847
3.90833	795
3.91667	746
3.92500	700
3.93333	657
3.94167	616
3.95000	577
3.95833	541
3.96667	507
3.97500	475
3.98333	445
3.99167	417
4.00000	391
4.00833	366
4.01667	343
4.02500	321
4.03333	300
4.04167	280
4.05000	262
4.05833	245
4.06667	228
4.07500	213
4.08333	199
4.09167	185
4.10000	173
4.10833	160
4.11667	149
4.12500	138
4.13333	127
4.14167	117
4.15000	107
4.15833	97
4.16667	89
4.17500	80
4.18333	72
4.19167	64
4.20000	57
4.20833	50
4.21667	43
4.22500	36
4.23333	29
4.24167	23
4.25000	16
4.25833	10
4.26667	4
4.27500	-2
4.28333	-7
4.29167	-12
4.30000	-18
4.30833	-23
4.31667	-28
4.32500	-34
4.33333	-38
4.34167	-43
4.35000	-47
4.35833	-51
4.36667	-55
4.37500	-59
4.38333	-64
4.39167	-68
4.40000	-73
4.40833	-77
4.41667	-81
4.42500	-84
4.43333	-88
4.44167	-91
4.45000	-94
4.45833	-97
4.46667	-100
4.47500	-103
4.48333	-106
4.49167	-108
4.50000	-110
4.50833	-113
4.51667	-115
4.52500	-117
4.53333	-119
4.54167	-121
4.55000	-123
4.55833	-125
4.56667	-126
4.57500	-128
4.58333	-129
4.59167	-130
4.60000	-132
4.60833	-133
4.61667	-134
4.62500	-135
4.63333	-136
4.64167	-137
4.65000	-138
4.65833	-138
4.66667	-139
4.67500	-140
4.68333	-141
4.69167	-142
4.70000	-143
4.70833	-143
4.71667	-143
4.72500	-143
4.73333	-143
4.74167	-143
4.75000	-143
4.75833	-143
4.76667	-143
4.77500	-143
4.78333	-143
4.79167	-143
4.80000	-143
4.80833	-144
4.81667	-144
4.82500	-145
4.83333	-145
4.84167	-145
4.85000	-145
4.85833	-144
4.86667	-144
4.87500	-144
4.88333	-143
4.89167	-143
4.90000	-143
4.90833	-143
4.91667	-143
4.92500	-143
4.93333	-143
4.94167	-143
4.95000	-143
4.95833	-143
4.96667	-142
4.97500	-142
4.98333	-142
4.99167	-142
5.00000	-142
5.00833	-142
5.01667	-142
5.02500	-141
5.03333	-141
5.04167	-141
5.05000	-141
5.05833	-141
5.06667	-141
5.07500	-141
5.08333	-140
5.09167	-140
5.10000	-140
5.10833	-140
5.11667	-140
5.12500	-140
5.13333	-140
5.14167	-140
5.15000	-140
5.15833	-140
5.16667	-140
5.17500	-140
5.18333	-140
5.19167	-140
5.20000	-140
5.20833	-140
5.21667	-141
5.22500	-141
5.23333	-141
5.24167	-141
5.25000	-142
5.25833	-142
5.26667	-142
5.27500	-143
5.28333	-143
5.29167	-143
5.30000	-143
5.30833	-143
5.31667	-143
5.32500	-144
5.33333	-144
5.34167	-145
5.35000	-145
5.35833	-146
5.36667	-146
5.37500	-147
5.38333	-147
5.39167	-147
5.40000	-148
5.40833	-148
5.41667	-148
5.42500	-149
5.43333	-150
5.44167	-150
5.45000	-150
5.45833	-151
5.46667	-151
5.47500	-151
5.48333	-151
5.49167	-152
5.50000	-153
5.50833	-153
5.51667	-154
5.52500	-155
5.53333	-156
5.54167	-156
5.55000	-157
5.55833	-158
5.56667	-158
5.57500	-158
5.58333	-159
5.59167	-159
5.60000	-160
5.60833	-160
5.61667	-161
5.62500	-161
5.63333	-161
5.64167	-161
5.65000	-162
5.65833	-162
5.66667	-163
5.67500	-163
5.68333	-163
5.69167	-163
5.70000	-162
5.70833	-162
5.71667	-162
5.72500	-163
5.73333	-163
5.74167	-164
5.75000	-164
5.75833	-165
5.76667	-165
5.77500	-165
5.78333	-165
5.79167	-165
5.80000	-165
5.80833	-165
5.81667	-165
5.82500	-165
5.83333	-166
5.84167	-166
5.85000	-166
5.85833	-167
5.86667	-167
5.87500	-167
5.88333	-167
5.89167	-168
5.90000	-167
5.90833	-167
5.91667	-167
5.92500	-167
5.93333	-167
5.94167	-167
5.95000	-167
5.95833	-167
5.96667	-167
5.97500	-166
5.98333	-167
5.99167	-166
6.00000	-166
6.00833	-166
6.01667	-167
6.02500	-167
6.03333	-167
6.04167	-167
6.05000	-167
6.05833	-167
6.06667	-167
6.07500	-166
6.08333	-166
6.09167	-166
6.10000	-167
6.10833	-167
6.11667	-167
6.12500	-167
6.13333	-168
6.14167	-168
6.15000	-168
6.15833	-168
6.16667	-168
6.17500	-168
6.18333	-168
6.19167	-168
6.20000	-168
6.20833	-168
6.21667	-168
6.22500	-167
6.23333	-167
6.24167	-167
6.25000	-166
6.25833	-166
6.26667	-166
6.27500	-166
6.28333	-166
6.29167	-166
6.30000	-166
6.30833	-166
6.31667	-165
6.32500	-165
6.33333	-165
6.34167	-165
6.35000	-165
6.35833	-165
6.36667	-165
6.37500	-165
6.38333	-166
6.39167	-166
6.40000	-165
6.40833	-165
6.41667	-165
6.42500	-165
6.43333	-165
6.44167	-165
6.45000	-165
6.45833	-165
6.46667	-164
6.47500	-164
6.48333	-165
6.49167	-165
6.50000	-165
6.50833	-165
6.51667	-166
6.52500	-166
6.53333	-166
6.54167	-165
6.55000	-166
6.55833	-166
6.56667	-166
6.57500	-166
6.58333	-166
6.59167	-167
6.60000	-167
6.60833	-167
6.61667	-167
6.62500	-167
6.63333	-168
6.64167	-168
6.65000	-168
6.65833	-168
6.66667	-169
6.67500	-168
6.68333	-168
6.69167	-168
6.70000	-168
6.70833	-169
6.71667	-169
6.72500	-169
6.73333	-168
6.74167	-169
6.75000	-169
6.75833	-169
6.76667	-169
6.77500	-169
6.78333	-169
6.79167	-170
6.80000	-170
6.80833	-170
6.81667	-170
6.82500	-171
6.83333	-171
6.84167	-171
6.85000	-172
6.85833	-172
6.86667	-172
6.87500	-172
6.88333	-171
6.89167	-171
6.90000	-171
6.90833	-171
6.91667	-170
6.92500	-170
6.93333	-170
6.94167	-170
6.95000	-169
6.95833	-169
6.96667	-169
6.97500	-169
6.98333	-168
6.99167	-168
7.00000	-167
7.00833	-167
7.01667	-166
7.02500	-166
7.03333	-165
7.04167	-165
7.05000	-164
7.05833	-162
7.06667	-161
7.07500	-159
7.08333	-157
7.09167	-154
7.10000	-150
7.10833	-145
7.11667	-140
7.12500	-133
7.13333	-125
7.14167	-116
7.15000	-106
7.15833	-93
7.16667	-79
7.17500	-63
7.18333	-44
7.19167	-24
7.20000	-2
7.20833	22
7.21667	48
7.22500	75
7.23333	104
7.24167	134
7.25000	164
7.25833	194
7.26667	223
7.27500	249
7.28333	271
7.29167	287
7.30000	295
7.30833	294
7.31667	283
7.32500	264
7.33333	239
7.34167	212
7.35000	192
7.35833	191
7.36667	221
7.37500	300
7.38333	448
7.39167	683
7.40000	1026
7.40833	1495
7.41667	2108
7.42500	2877
7.43333	3809
7.44167	4906
7.45000	6163
7.45833	7563
7.46667	9083
7.47500	10689
7.48333	12336
7.49167	13969
7.50000	15526
7.50833	16941
7.51667	18148
7.52500	19089
7.53333	19717
7.54167	20004
7.55000	19940
7.55833	19540
7.56667	18838
7.57500	17883
7.58333	16734
7.59167	15455
7.60000	14109
7.60833	12751
7.61667	11428
7.62500	10178
7.63333	9025
7.64167	7985
7.65000	7064
7.65833	6262
7.66667	5572
7.67500	4984
7.68333	4487
7.69167	4068
7.70000	3715
7.70833	3416
7.71667	3161
7.72500	2941
7.73333	2749
7.74167	2579
7.75000	2428
7.75833	2290
7.76667	2163
7.77500	2047
7.78333	1939
7.79167	1837
7.80000	1742
7.80833	1652
7.81667	1566
7.82500	1484
7.83333	1406
7.84167	1329
7.85000	1256
7.85833	1184
7.86667	1115
7.87500	1047
7.88333	982
7.89167	919
7.90000	858
7.90833	800
7.91667	745
7.92500	694
7.93333	648
7.94167	605
7.95000	567
7.95833	533
7.96667	504
7.97500	479
7.98333	459
7.99167	443
8.00000	431
8.00833	421
8.01667	414
8.02500	408
8.03333	403
8.04167	398
8.05000	393
8.05833	388
8.06667	381
8.07500	373
8.08333	364
8.09167	354
8.10000	342
8.10833	330
8.11667	316
8.12500	302
8.13333	288
8.14167	273
8.15000	258
8.15833	244
8.16667	230
8.17500	216
8.18333	203
8.19167	191
8.20000	179
8.20833	168
8.21667	159
8.22500	149
8.23333	141
8.24167	133
8.25000	126
8.25833	120
8.26667	114
8.27500	109
8.28333	105
8.29167	101
8.30000	98
8.30833	95
8.31667	93
8.32500	91
8.33333	89
8.34167	87
8.35000	85
8.35833	84
8.36667	83
8.37500	81
8.38333	80
8.39167	78
8.40000	77
8.40833	75
8.41667	74
8.42500	73
8.43333	71
8.44167	70
8.45000	68
8.45833	67
8.46667	66
8.47500	64
8.48333	63
8.49167	61
8.50000	59
8.50833	58
8.51667	56
8.52500	55
8.53333	53
8.54167	52
8.55000	51
8.55833	51
8.56667	50
8.57500	49
8.58333	49
8.59167	49
8.60000	48
8.60833	48
8.61667	48
8.62500	49
8.63333	50
8.64167	52
8.65000	54
8.65833	57
8.66667	60
8.67500	63
8.68333	67
8.69167	72
8.70000	78
8.70833	83
8.71667	89
8.72500	95
8.73333	102
8.74167	109
8.75000	116
8.75833	122
8.76667	129
8.77500	136
8.78333	143
8.79167	149
8.80000	155
8.80833	162
8.81667	168
8.82500	174
8.83333	181
8.84167	189
8.85000	198
8.85833	209
8.86667	222
8.87500	238
8.88333	257
8.89167	281
8.90000	311
8.90833	346
8.91667	389
8.92500	440
8.93333	499
8.94167	568
8.95000	646
8.95833	734
8.96667	831
8.97500	937
8.98333	1051
8.99167	1171
9.00000	1296
9.00833	1424
9.01667	1552
9.02500	1678
9.03333	1798
9.04167	1911
9.05000	2014
9.05833	2105
9.06667	2181
9.07500	2241
9.08333	2284
9.09167	2309
9.10000	2317
9.10833	2306
9.11667	2279
9.12500	2236
9.13333	2180
9.14167	2110
9.15000	2031
9.15833	1943
9.16667	1847
9.17500	1748
9.18333	1645
9.19167	1542
9.20000	1439
9.20833	1338
9.21667	1241
9.22500	1147
9.23333	1059
9.24167	976
9.25000	898
9.25833	826
9.26667	760
9.27500	700
9.28333	646
9.29167	597
9.30000	554
9.30833	515
9.31667	481
9.32500	451
9.33333	426
9.34167	404
9.35000	386
9.35833	372
9.36667	361
9.37500	354
9.38333	351
9.39167	353
9.40000	358
9.40833	369
9.41667	386
9.42500	410
9.43333	441
9.44167	482
9.45000	535
9.45833	602
9.46667	687
9.47500	791
9.48333	920
9.49167	1077
9.50000	1267
9.50833	1496
9.51667	1769
9.52500	2090
9.53333	2466
9.54167	2901
9.55000	3398
9.55833	3960
9.56667	4590
9.57500	5286
9.58333	6047
9.59167	6869
9.60000	7746
9.60833	8670
9.61667	9630
9.62500	10613
9.63333	11606
9.64167	12594
9.65000	13563
9.65833	14495
9.66667	15377
9.67500	16193
9.68333	16931
9.69167	17579
9.70000	18129
9.70833	18575
9.71667	18914
9.72500	19145
9.73333	19273
9.74167	19300
9.75000	19236
9.75833	19090
9.76667	18872
9.77500	18596
9.78333	18275
9.79167	17921
9.80000	17547
9.80833	17167
9.81667	16791
9.82500	16431
9.83333	16096
9.84167	15795
9.85000	15533
9.85833	15316
9.86667	15149
9.87500	15033
9.88333	14970
9.89167	14961
9.90000	15007
9.90833	15104
9.91667	15253
9.92500	15451
9.93333	15695
9.94167	15981
9.95000	16308
9.95833	16673
9.96667	17071
9.97500	17500
9.98333	17957
9.99167	18437
10.00000	18938
10.00833	19456
10.01667	19987
10.02500	20527
10.03333	21071
10.04167	21610
10.05000	22135
10.05833	22629
10.06667	23071
10.07500	23430
10.08333	23673
10.09167	23759
10.10000	23650
10.10833	23315
10.11667	22731
10.12500	21897
10.13333	20826
10.14167	19551
10.15000	18118
10.15833	16581
10.16667	14997
10.17500	13419
10.18333	11895
10.19167	10459
10.20000	9136
10.20833	7941
10.21667	6878
10.22500	5948
10.23333	5142
10.24167	4450
10.25000	3861
10.25833	3362
10.26667	2941
10.27500	2587
10.28333	2289
10.29167	2038
10.30000	1826
10.30833	1646
10.31667	1493
10.32500	1361
10.33333	1247
10.34167	1148
10.35000	1061
10.35833	983
10.36667	914
10.37500	852
10.38333	795
10.39167	744
10.40000	697
10.40833	653
10.41667	614
10.42500	577
10.43333	544
10.44167	513
10.45000	485
10.45833	460
10.46667	438
10.47500	419
10.48333	403
10.49167	390
10.50000	380
10.50833	373
10.51667	370
10.52500	369
10.53333	370
10.54167	375
10.55000	381
10.55833	390
10.56667	401
10.57500	413
10.58333	427
10.59167	441
10.60000	455
10.60833	468
10.61667	480
10.62500	491
10.63333	500
10.64167	506
10.65000	510
10.65833	510
10.66667	508
10.67500	503
10.68333	495
10.69167	484
10.70000	471
10.70833	455
10.71667	437
10.72500	418
10.73333	397
10.74167	376
10.75000	355
10.75833	333
10.76667	312
10.77500	292
10.78333	273
10.79167	255
10.80000	238
10.80833	222
10.81667	209
10.82500	197
10.83333	186
10.84167	177
10.85000	169
10.85833	162
10.86667	156
10.87500	150
10.88333	146
10.89167	142
10.90000	139
10.90833	135
10.91667	132
10.92500	129
10.93333	125
10.94167	121
10.95000	116
10.95833	112
10.96667	108
10.97500	103
10.98333	98
10.99167	93
11.00000	88
11.00833	83
11.01667	78
11.02500	73
11.03333	69
11.04167	65
11.05000	61
11.05833	58
11.06667	55
11.07500	53
11.08333	52
11.09167	52
11.10000	53
11.10833	55
11.11667	58
11.12500	61
11.13333	67
11.14167	73
11.15000	80
11.15833	89
11.16667	98
11.17500	109
11.18333	121
11.19167	134
11.20000	147
11.20833	160
11.21667	172
11.22500	185
11.23333	197
11.24167	208
11.25000	218
11.25833	227
11.26667	235
11.27500	241
11.28333	246
11.29167	248
11.30000	250
11.30833	249
11.31667	248
11.32500	245
11.33333	241
11.34167	235
11.35000	229
11.35833	222
11.36667	214
11.37500	206
11.38333	198
11.39167	191
11.40000	183
11.40833	175
11.41667	167
11.42500	160
11.43333	154
11.44167	148
11.45000	144
11.45833	139
11.46667	136
11.47500	134
11.48333	132
11.49167	132
11.50000	132
11.50833	132
11.51667	133
11.52500	133
11.53333	134
11.54167	135
11.55000	136
11.55833	138
11.56667	139
11.57500	140
11.58333	140
11.59167	140
11.60000	140
11.60833	139
11.61667	138
11.62500	138
11.63333	137
11.64167	136
11.65000	135
11.65833	134
11.66667	133
11.67500	132
11.68333	131
11.69167	131
11.70000	132
11.70833	133
11.71667	134
11.72500	135
11.73333	138
11.74167	140
11.75000	142
11.75833	144
11.76667	146
11.77500	147
11.78333	148
11.79167	149
11.80000	149
11.80833	148
11.81667	147
11.82500	145
11.83333	143
11.84167	139
11.85000	135
11.85833	129
11.86667	123
11.87500	116
11.88333	109
11.89167	101
11.90000	93
11.90833	84
11.91667	76
11.92500	68
11.93333	59
11.94167	51
11.95000	44
11.95833	37
11.96667	30
11.97500	23
11.98333	16
11.99167	10
12.00000	5
12.00833	0
12.01667	-4
12.02500	-8
12.03333	-12
12.04167	-15
12.05000	-18
12.05833	-20
12.06667	-22
12.07500	-23
12.08333	-24
12.09167	-25
12.10000	-25
12.10833	-26
12.11667	-27
12.12500	-28
12.13333	-28
12.14167	-28
12.15000	-28
12.15833	-29
12.16667	-29
12.17500	-29
12.18333	-30
12.19167	-30
12.20000	-31
12.20833	-31
12.21667	-31
12.22500	-31
12.23333	-31
12.24167	-30
12.25000	-30
12.25833	-31
12.26667	-31
12.27500	-31
12.28333	-32
12.29167	-33
12.30000	-34
12.30833	-35
12.31667	-36
12.32500	-38
12.33333	-39
12.34167	-41
12.35000	-44
12.35833	-46
12.36667	-48
12.37500	-50
12.38333	-52
12.39167	-53
12.40000	-55
12.40833	-57
12.41667	-59
12.42500	-61
12.43333	-63
12.44167	-65
12.45000	-67
12.45833	-68
12.46667	-70
12.47500	-71
12.48333	-72
12.49167	-73
12.50000	-74
12.50833	-74
12.51667	-75
12.52500	-75
12.53333	-75
12.54167	-75
12.55000	-75
12.55833	-74
12.56667	-74
12.57500	-73
12.58333	-72
12.59167	-71
12.60000	-70
12.60833	-69
12.61667	-68
12.62500	-67
12.63333	-65
12.64167	-64
12.65000	-63
12.65833	-61
12.66667	-60
12.67500	-58
12.68333	-56
12.69167	-55
12.70000	-54
12.70833	-53
12.71667	-51
12.72500	-50
12.73333	-49
12.74167	-47
12.75000	-47
12.75833	-46
12.76667	-45
12.77500	-45
12.78333	-45
12.79167	-45
12.80000	-45
12.80833	-45
12.81667	-45
12.82500	-45
12.83333	-44
12.84167	-44
12.85000	-44
12.85833	-44
12.86667	-44
12.87500	-44
12.88333	-44
12.89167	-43
12.90000	-43
12.90833	-42
12.91667	-41
12.92500	-40
12.93333	-40
12.94167	-39
12.95000	-38
12.95833	-37
12.96667	-36
12.97500	-35
12.98333	-34
12.99167	-33
13.00000	-32
13.00833	-31
13.01667	-30
13.02500	-28
13.03333	-27
13.04167	-26
13.05000	-25
13.05833	-24
13.06667	-22
13.07500	-21
13.08333	-20
13.09167	-19
13.10000	-18
13.10833	-17
13.11667	-17
13.12500	-17
13.13333	-17
13.14167	-17
13.15000	-18
13.15833	-18
13.16667	-19
13.17500	-19
13.18333	-20
13.19167	-20
13.20000	-21
13.20833	-21
13.21667	-22
13.22500	-23
13.23333	-24
13.24167	-24
13.25000	-25
13.25833	-25
13.26667	-25
13.27500	-25
13.28333	-25
13.29167	-25
13.30000	-25
13.30833	-25
13.31667	-24
13.32500	-24
13.33333	-23
13.34167	-23
13.35000	-22
13.35833	-22
13.36667	-21
13.37500	-21
13.38333	-20
13.39167	-19
13.40000	-19
13.40833	-17
13.41667	-16
13.42500	-14
13.43333	-13
13.44167	-12
13.45000	-10
13.45833	-8
13.46667	-6
13.47500	-4
13.48333	-1
13.49167	2
13.50000	5
13.50833	8
13.51667	12
13.52500	16
13.53333	21
13.54167	26
13.55000	32
13.55833	39
13.56667	46
13.57500	55
13.58333	64
13.59167	75
13.60000	87
13.60833	99
13.61667	113
13.62500	128
13.63333	144
13.64167	161
13.65000	179
13.65833	198
13.66667	218
13.67500	238
13.68333	258
13.69167	278
13.70000	297
13.70833	316
13.71667	334
13.72500	351
13.73333	367
13.74167	381
13.75000	394
13.75833	405
13.76667	414
13.77500	421
13.78333	425
13.79167	429
13.80000	431
13.80833	432
13.81667	432
13.82500	431
13.83333	429
13.84167	427
13.85000	424
13.85833	422
13.86667	419
13.87500	416
13.88333	413
13.89167	411
13.90000	410
13.90833	409
13.91667	408
13.92500	407
13.93333	406
13.94167	405
13.95000	404
13.95833	402
13.96667	400
13.97500	397
13.98333	394
13.99167	390
14.00000	385
14.00833	379
14.01667	373
14.02500	365
14.03333	357
14.04167	348
14.05000	338
14.05833	329
14.06667	318
14.07500	308
14.08333	297
14.09167	286
14.10000	276
14.10833	265
14.11667	255
14.12500	245
14.13333	235
14.14167	226
14.15000	217
14.15833	209
14.16667	201
14.17500	194
14.18333	188
14.19167	182
14.20000	177
14.20833	172
14.21667	168
14.22500	165
14.23333	161
14.24167	158
14.25000	156
14.25833	153
14.26667	152
14.27500	150
14.28333	149
14.29167	148
14.30000	147
14.30833	147
14.31667	147
14.32500	147
14.33333	147
14.34167	147
14.35000	148
14.35833	149
14.36667	149
14.37500	150
14.38333	151
14.39167	153
14.40000	154
14.40833	156
14.41667	157
14.42500	159
14.43333	160
14.44167	161
14.45000	163
14.45833	164
14.46667	165
14.47500	167
14.48333	168
14.49167	169
14.50000	169
14.50833	170
14.51667	171
14.52500	173
14.53333	173
14.54167	174
14.55000	174
14.55833	174
14.56667	175
14.57500	175
14.58333	175
14.59167	174
14.60000	174
14.60833	174
14.61667	174
14.62500	174
14.63333	174
14.64167	173
14.65000	173
14.65833	173
14.66667	173
14.67500	172
14.68333	172
14.69167	171
14.70000	171
14.70833	170
14.71667	169
14.72500	168
14.73333	167
14.74167	167
14.75000	167
14.75833	167
14.76667	166
14.77500	166
14.78333	165
14.79167	164
14.80000	164
14.80833	163
14.81667	163
14.82500	163
14.83333	163
14.84167	163
14.85000	163
14.85833	164
14.86667	164
14.87500	165
14.88333	165
14.89167	166
14.90000	166
14.90833	167
14.91667	168
14.92500	169
14.93333	171
14.94167	172
14.95000	174
14.95833	176
14.96667	179
14.97500	181
14.98333	185
14.99167	189
15.00000	193
15.00833	198
15.01667	204
15.02500	211
15.03333	219
15.04167	228
15.05000	239
15.05833	251
15.06667	265
15.07500	281
15.08333	299
15.09167	319
15.10000	341
15.10833	366
15.11667	393
15.12500	422
15.13333	454
15.14167	488
15.15000	525
15.15833	563
15.16667	604
15.17500	646
15.18333	689
15.19167	733
15.20000	777
15.20833	822
15.21667	865
15.22500	907
15.23333	947
15.24167	984
15.25000	1018
15.25833	1049
15.26667	1075
15.27500	1096
15.28333	1112
15.29167	1123
15.30000	1129
15.30833	1129
15.31667	1124
15.32500	1113
15.33333	1097
15.34167	1077
15.35000	1053
15.35833	1024
15.36667	992
15.37500	956
15.38333	918
15.39167	878
15.40000	837
15.40833	794
15.41667	751
15.42500	709
15.43333	666
15.44167	625
15.45000	584
15.45833	544
15.46667	506
15.47500	469
15.48333	435
15.49167	402
15.50000	371
15.50833	342
15.51667	314
15.52500	289
15.53333	265
15.54167	243
15.55000	223
15.55833	204
15.56667	187
15.57500	172
15.58333	157
15.59167	144
15.60000	133
15.60833	122
15.61667	112
15.62500	103
15.63333	95
15.64167	88
15.65000	82
15.65833	77
15.66667	73
15.67500	69
15.68333	67
15.69167	65
15.70000	63
15.70833	63
15.71667	64
15.72500	65
15.73333	67
15.74167	71
15.75000	75
15.75833	79
15.76667	85
15.77500	92
15.78333	99
15.79167	108
15.80000	118
15.80833	129
15.81667	142
15.82500	156
15.83333	171
15.84167	189
15.85000	209
15.85833	232
15.86667	258
15.87500	287
15.88333	320
15.89167	357
15.90000	398
15.90833	444
15.91667	496
15.92500	554
15.93333	618
15.94167	690
15.95000	769
15.95833	856
15.96667	952
15.97500	1057
15.98333	1171
15.99167	1294
16.00000	1425
16.00833	1565
16.01667	1714
16.02500	1869
16.03333	2030
16.04167	2197
16.05000	2366
16.05833	2538
16.06667	2711
16.07500	2882
16.08333	3049
16.09167	3210
16.10000	3363
16.10833	3506
16.11667	3638
16.12500	3755
16.13333	3857
16.14167	3943
16.15000	4010
16.15833	4059
16.16667	4088
16.17500	4098
16.18333	4088
16.19167	4059
16.20000	4012
16.20833	3948
16.21667	3868
16.22500	3773
16.23333	3664
16.24167	3545
16.25000	3416
16.25833	3280
16.26667	3138
16.27500	2992
16.28333	2844
16.29167	2695
16.30000	2547
16.30833	2401
16.31667	2259
16.32500	2121
16.33333	1989
16.34167	1863
16.35000	1743
16.35833	1631
16.36667	1525
16.37500	1427
16.38333	1336
16.39167	1253
16.40000	1177
16.40833	1108
16.41667	1046
16.42500	991
16.43333	943
16.44167	900
16.45000	863
16.45833	832
16.46667	806
16.47500	785
16.48333	769
16.49167	757
16.50000	750
16.50833	746
16.51667	745
16.52500	748
16.53333	753
16.54167	761
16.55000	771
16.55833	782
16.56667	795
16.57500	809
16.58333	823
16.59167	838
16.60000	852
16.60833	866
16.61667	879
16.62500	891
16.63333	901
16.64167	908
16.65000	914
16.65833	916
16.66667	916
16.67500	913
16.68333	907
16.69167	898
16.70000	887
16.70833	872
16.71667	855
16.72500	835
16.73333	813
16.74167	789
16.75000	762
16.75833	734
16.76667	704
16.77500	673
16.78333	641
16.79167	609
16.80000	577
16.80833	545
16.81667	513
16.82500	482
16.83333	452
16.84167	422
16.85000	393
16.85833	365
16.86667	338
16.87500	313
16.88333	288
16.89167	266
16.90000	245
16.90833	225
16.91667	206
16.92500	188
16.93333	172
16.94167	156
16.95000	142
16.95833	129
16.96667	117
16.97500	105
16.98333	95
16.99167	85
17.00000	76
17.00833	67
17.01667	60
17.02500	52
17.03333	46
17.04167	39
17.05000	34
17.05833	28
17.06667	23
17.07500	19
17.08333	15
17.09167	11
17.10000	7
17.10833	3
17.11667	-0
17.12500	-3
17.13333	-6
17.14167	-9
17.15000	-11
17.15833	-13
17.16667	-15
17.17500	-17
17.18333	-19
17.19167	-21
17.20000	-23
17.20833	-24
17.21667	-26
17.22500	-27
17.23333	-28
17.24167	-30
17.25000	-31
17.25833	-32
17.26667	-33
17.27500	-34
17.28333	-35
17.29167	-36
17.30000	-36
17.30833	-37
17.31667	-37
17.32500	-38
17.33333	-38
17.34167	-39
17.35000	-39
17.35833	-40
17.36667	-40
17.37500	-40
17.38333	-40
17.39167	-40
17.40000	-40
17.40833	-40
17.41667	-39
17.42500	-39
17.43333	-38
17.44167	-37
17.45000	-37
17.45833	-36
17.46667	-35
17.47500	-35
17.48333	-34
17.49167	-33
17.50000	-31
17.50833	-30
17.51667	-29
17.52500	-28
17.53333	-26
17.54167	-24
17.55000	-22
17.55833	-20
17.56667	-17
17.57500	-15
17.58333	-12
17.59167	-9
17.60000	-6
17.60833	-3
17.61667	1
17.62500	5
17.63333	10
17.64167	14
17.65000	20
17.65833	26
17.66667	33
17.67500	40
17.68333	48
17.69167	58
17.70000	67
17.70833	78
17.71667	90
17.72500	103
17.73333	118
17.74167	134
17.75000	152
17.75833	171
17.76667	192
17.77500	216
17.78333	241
17.79167	269
17.80000	300
17.80833	334
17.81667	371
17.82500	412
17.83333	458
17.84167	508
17.85000	563
17.85833	624
17.86667	691
17.87500	765
17.88333	845
17.89167	934
17.90000	1031
17.90833	1137
17.91667	1251
17.92500	1376
17.93333	1510
17.94167	1654
17.95000	1808
17.95833	1972
17.96667	2146
17.97500	2328
17.98333	2520
17.99167	2719
18.00000	2925
18.00833	3137
18.01667	3354
18.02500	3573
18.03333	3792
18.04167	4011
18.05000	4227
18.05833	4437
18.06667	4641
18.07500	4834
18.08333	5016
18.09167	5184
18.10000	5337
18.10833	5472
18.11667	5588
18.12500	5684
18.13333	5758
18.14167	5810
18.15000	5840
18.15833	5846
18.16667	5830
18.17500	5791
18.18333	5731
18.19167	5651
18.20000	5552
18.20833	5434
18.21667	5301
18.22500	5152
18.23333	4991
18.24167	4819
18.25000	4638
18.25833	4450
18.26667	4256
18.27500	4060
18.28333	3861
18.29167	3662
18.30000	3465
18.30833	3270
18.31667	3080
18.32500	2894
18.33333	2714
18.34167	2540
18.35000	2374
18.35833	2215
18.36667	2064
18.37500	1920
18.38333	1785
18.39167	1657
18.40000	1538
18.40833	1426
18.41667	1322
18.42500	1225
18.43333	1136
18.44167	1052
18.45000	975
18.45833	904
18.46667	838
18.47500	777
18.48333	722
18.49167	671
18.50000	624
18.50833	581
18.51667	541
18.52500	505
18.53333	471
18.54167	441
18.55000	413
18.55833	388
18.56667	364
18.57500	343
18.58333	324
18.59167	307
18.60000	292
18.60833	278
18.61667	266
18.62500	255
18.63333	245
18.64167	237
18.65000	231
18.65833	225
18.66667	221
18.67500	217
18.68333	215
18.69167	214
18.70000	213
18.70833	214
18.71667	216
18.72500	219
18.73333	222
18.74167	227
18.75000	233
18.75833	239
18.76667	246
18.77500	254
18.78333	262
18.79167	270
18.80000	279
18.80833	289
18.81667	298
18.82500	308
18.83333	318
18.84167	328
18.85000	337
18.85833	346
18.86667	354
18.87500	363
18.88333	371
18.89167	378
18.90000	385
18.90833	390
18.91667	395
18.92500	399
18.93333	402
18.94167	404
18.95000	405
18.95833	404
18.96667	403
18.97500	400
18.98333	396
18.99167	391
19.00000	386
19.00833	380
19.01667	373
19.02500	365
19.03333	357
19.04167	348
19.05000	339
19.05833	330
19.06667	320
19.07500	310
19.08333	300
19.09167	290
19.10000	280
19.10833	270
19.11667	260
19.12500	250
19.13333	240
19.14167	231
19.15000	221
19.15833	213
19.16667	204
19.17500	197
19.18333	189
19.19167	182
19.20000	176
19.20833	170
19.21667	165
19.22500	160
19.23333	155
19.24167	150
19.25000	146
19.25833	142
19.26667	139
19.27500	136
19.28333	134
19.29167	131
19.30000	129
19.30833	127
19.31667	125
19.32500	124
19.33333	123
19.34167	123
19.35000	122
19.35833	122
19.36667	123
19.37500	123
19.38333	123
19.39167	123
19.40000	124
19.40833	125
19.41667	125
19.42500	126
19.43333	127
19.44167	128
19.45000	129
19.45833	130
19.46667	132
19.47500	133
19.48333	134
19.49167	135
19.50000	137
19.50833	137
19.51667	138
19.52500	139
19.53333	141
19.54167	142
19.55000	143
19.55833	145
19.56667	146
19.57500	147
19.58333	148
19.59167	148
19.60000	149
19.60833	149
19.61667	150
19.62500	150
19.63333	150
19.64167	151
19.65000	152
19.65833	152
19.66667	153
19.67500	154
19.68333	154
19.69167	155
19.70000	155
19.70833	156
19.71667	156
19.72500	157
19.73333	157
19.74167	157
19.75000	157
19.75833	158
19.76667	158
19.77500	159
19.78333	159
19.79167	160
19.80000	160
19.80833	160
19.81667	160
19.82500	160
19.83333	160
19.84167	160
19.85000	160
19.85833	160
19.86667	161
19.87500	161
19.88333	161
19.89167	161
19.90000	161
19.90833	161
19.91667	161
19.92500	161
19.93333	161
19.94167	161
19.95000	162
19.95833	162
19.96667	162
19.97500	162
19.98333	162
19.99167	162
20.00000	162
20.00833	163
20.01667	163
20.02500	163
20.03333	163
20.04167	162
20.05000	162
20.05833	163
20.06667	163
20.07500	164
20.08333	164
20.09167	165
20.10000	165
20.10833	166
20.11667	167
20.12500	168
20.13333	168
20.14167	169
20.15000	170
20.15833	171
20.16667	172
20.17500	172
20.18333	173
20.19167	174
20.20000	175
20.20833	176
20.21667	177
20.22500	177
20.23333	178
20.24167	179
20.25000	181
20.25833	182
20.26667	183
20.27500	184
20.28333	185
20.29167	186
20.30000	187
20.30833	189
20.31667	191
20.32500	193
20.33333	195
20.34167	197
20.35000	199
20.35833	201
20.36667	203
20.37500	206
20.38333	208
20.39167	211
20.40000	214
20.40833	217
20.41667	219
20.42500	223
20.43333	227
20.44167	231
20.45000	235
20.45833	240
20.46667	244
20.47500	249
20.48333	254
20.49167	259
20.50000	265
20.50833	271
20.51667	277
20.52500	284
20.53333	291
20.54167	298
20.55000	306
20.55833	315
20.56667	324
20.57500	334
20.58333	345
20.59167	356
20.60000	368
20.60833	380
20.61667	394
20.62500	409
20.63333	425
20.64167	443
20.65000	460
20.65833	480
20.66667	501
20.67500	523
20.68333	546
20.69167	570
20.70000	596
20.70833	624
20.71667	653
20.72500	683
20.73333	714
20.74167	747
20.75000	781
20.75833	815
20.76667	851
20.77500	888
20.78333	925
20.79167	964
20.80000	1003
20.80833	1042
20.81667	1082
20.82500	1122
20.83333	1161
20.84167	1201
20.85000	1240
20.85833	1279
20.86667	1318
20.87500	1356
20.88333	1393
20.89167	1430
20.90000	1466
20.90833	1501
20.91667	1535
20.92500	1568
20.93333	1600
20.94167	1631
20.95000	1662
20.95833	1691
20.96667	1721
20.97500	1750
20.98333	1779
20.99167	1807
21.00000	1835
21.00833	1864
21.01667	1893
21.02500	1923
21.03333	1954
21.04167	1986
21.05000	2020
21.05833	2056
21.06667	2095
21.07500	2136
21.08333	2181
21.09167	2229
21.10000	2281
21.10833	2337
21.11667	2398
21.12500	2464
21.13333	2537
21.14167	2616
21.15000	2703
21.15833	2797
21.16667	2900
21.17500	3012
21.18333	3135
21.19167	3267
21.20000	3411
21.20833	3565
21.21667	3732
21.22500	3913
21.23333	4106
21.24167	4314
21.25000	4536
21.25833	4772
21.26667	5023
21.27500	5289
21.28333	5569
21.29167	5864
21.30000	6172
21.30833	6494
21.31667	6829
21.32500	7175
21.33333	7532
21.34167	7898
21.35000	8272
21.35833	8652
21.36667	9036
21.37500	9423
21.38333	9810
21.39167	10194
21.40000	10575
21.40833	10948
21.41667	11311
21.42500	11664
21.43333	12002
21.44167	12324
21.45000	12627
21.45833	12910
21.46667	13169
21.47500	13404
21.48333	13612
21.49167	13792
21.50000	13943
21.50833	14063
21.51667	14153
21.52500	14210
21.53333	14236
21.54167	14231
21.55000	14193
21.55833	14124
21.56667	14025
21.57500	13897
21.58333	13741
21.59167	13558
21.60000	13349
21.60833	13117
21.61667	12863
21.62500	12589
21.63333	12297
21.64167	11989
21.65000	11667
21.65833	11334
21.66667	10990
21.67500	10638
21.68333	10281
21.69167	9920
21.70000	9556
21.70833	9193
21.71667	8830
21.72500	8471
21.73333	8115
21.74167	7764
21.75000	7420
21.75833	7083
21.76667	6755
21.77500	6435
21.78333	6125
21.79167	5825
21.80000	5536
21.80833	5257
21.81667	4990
21.82500	4734
21.83333	4488
21.84167	4254
21.85000	4030
21.85833	3818
21.86667	3616
21.87500	3423
21.88333	3242
21.89167	3070
21.90000	2907
21.90833	2753
21.91667	2607
21.92500	2470
21.93333	2341
21.94167	2219
21.95000	2105
21.95833	1997
21.96667	1895
21.97500	1799
21.98333	1709
21.99167	1624
22.00000	1545
22.00833	1471
22.01667	1402
22.02500	1337
22.03333	1275
22.04167	1217
22.05000	1163
22.05833	1113
22.06667	1066
22.07500	1022
22.08333	981
22.09167	942
22.10000	907
22.10833	873
22.11667	842
22.12500	813
22.13333	786
22.14167	762
22.15000	738
22.15833	717
22.16667	697
22.17500	679
22.18333	663
22.19167	648
22.20000	634
22.20833	621
22.21667	609
22.22500	599
22.23333	589
22.24167	581
22.25000	573
22.25833	567
22.26667	561
22.27500	556
22.28333	551
22.29167	547
22.30000	544
22.30833	541
22.31667	538
22.32500	536
22.33333	534
22.34167	533
22.35000	531
22.35833	530
22.36667	529
22.37500	528
22.38333	526
22.39167	525
22.40000	524
22.40833	523
22.41667	522
22.42500	521
22.43333	519
22.44167	518
22.45000	516
22.45833	513
22.46667	511
22.47500	509
22.48333	506
22.49167	503
22.50000	499
22.50833	495
22.51667	490
22.52500	485
22.53333	481
22.54167	476
22.55000	471
22.55833	466
22.56667	460
22.57500	454
22.58333	448
22.59167	442
22.60000	435
22.60833	428
22.61667	421
22.62500	414
22.63333	407
22.64167	400
22.65000	393
22.65833	387
22.66667	380
22.67500	373
22.68333	367
22.69167	360
22.70000	353
22.70833	347
22.71667	340
22.72500	335
22.73333	329
22.74167	324
22.75000	319
22.75833	314
22.76667	309
22.77500	306
22.78333	302
22.79167	299
22.80000	296
22.80833	293
22.81667	290
22.82500	287
22.83333	285
22.84167	284
22.85000	283
22.85833	283
22.86667	282
22.87500	282
22.88333	282
22.89167	282
22.90000	283
22.90833	283
22.91667	285
22.92500	286
22.93333	288
22.94167	290
22.95000	292
22.95833	295
22.96667	297
22.97500	300
22.98333	303
22.99167	305
23.00000	308
23.00833	311
23.01667	314
23.02500	317
23.03333	320
23.04167	323
23.05000	325
23.05833	328
23.06667	331
23.07500	334
23.08333	337
23.09167	339
23.10000	342
23.10833	344
23.11667	346
23.12500	348
23.13333	350
23.14167	352
23.15000	353
23.15833	355
23.16667	357
23.17500	358
23.18333	358
23.19167	359
23.20000	360
23.20833	361
23.21667	361
23.22500	362
23.23333	362
23.24167	363
23.25000	363
23.25833	363
23.26667	363
23.27500	363
23.28333	363
23.29167	364
23.30000	364
23.30833	364
23.31667	364
23.32500	363
23.33333	363
23.34167	362
23.35000	361
23.35833	361
23.36667	361
23.37500	360
23.38333	359
23.39167	359
23.40000	358
23.40833	357
23.41667	356
23.42500	356
23.43333	356
23.44167	355
23.45000	354
23.45833	353
23.46667	352
23.47500	352
23.48333	352
23.49167	351
23.50000	351
23.50833	351
23.51667	350
23.52500	350
23.53333	350
23.54167	349
23.55000	349
23.55833	349
23.56667	349
23.57500	348
23.58333	348
23.59167	348
23.60000	348
23.60833	348
23.61667	347
23.62500	347
23.63333	346
23.64167	346
23.65000	346
23.65833	346
23.66667	346
23.67500	346
23.68333	346
23.69167	346
23.70000	345
23.70833	345
23.71667	345
23.72500	345
23.73333	346
23.74167	346
23.75000	346
23.75833	347
23.76667	347
23.77500	347
23.78333	347
23.79167	347
23.80000	347
23.80833	347
23.81667	347
23.82500	347
23.83333	348
23.84167	348
23.85000	349
23.85833	349
23.86667	349
23.87500	349
23.88333	349
23.89167	349
23.90000	349
23.90833	349
23.91667	349
23.92500	349
23.93333	348
23.94167	348
23.95000	349
23.95833	349
23.96667	350
23.97500	351
23.98333	351
23.99167	351
24.00000	350
24.00833	350
24.01667	350
24.02500	350
24.03333	350
24.04167	350
24.05000	350
24.05833	350
24.06667	349
24.07500	349
24.08333	349
24.09167	348
24.10000	348
24.10833	347
24.11667	346
24.12500	345
24.13333	344
24.14167	344
24.15000	343
24.15833	342
24.16667	341
24.17500	341
24.18333	340
24.19167	339
24.20000	337
24.20833	336
24.21667	334
24.22500	332
24.23333	331
24.24167	330
24.25000	328
24.25833	325
24.26667	323
24.27500	321
24.28333	319
24.29167	317
24.30000	315
24.30833	313
24.31667	311
24.32500	309
24.33333	306
24.34167	304
24.35000	302
24.35833	300
24.36667	297
24.37500	295
24.38333	294
24.39167	292
24.40000	290
24.40833	288
24.41667	286
24.42500	284
24.43333	283
24.44167	281
24.45000	279
24.45833	277
24.46667	276
24.47500	274
24.48333	273
24.49167	271
24.50000	270
24.50833	269
24.51667	268
24.52500	267
24.53333	266
24.54167	266
24.55000	266
24.55833	265
24.56667	265
24.57500	265
24.58333	264
24.59167	264
24.60000	263
24.60833	263
24.61667	263
24.62500	263
24.63333	263
24.64167	263
24.65000	263
24.65833	263
24.66667	264
24.67500	264
24.68333	264
24.69167	265
24.70000	265
24.70833	265
24.71667	265
24.72500	266
24.73333	266
24.74167	266
24.75000	266
24.75833	266
24.76667	266
24.77500	266
24.78333	267
24.79167	267
24.80000	267
24.80833	268
24.81667	268
24.82500	268
24.83333	268
24.84167	269
24.85000	269
24.85833	269
24.86667	268
24.87500	268
24.88333	268
24.89167	268
24.90000	268
24.90833	268
24.91667	268
24.92500	268
24.93333	268
24.94167	268
24.95000	268
24.95833	268
24.96667	268
24.97500	268
24.98333	268
24.99167	268
25.00000	268
25.00833	267
25.01667	267
25.02500	267
25.03333	266
25.04167	266
25.05000	265
25.05833	265
25.06667	265
25.07500	265
25.08333	265
25.09167	264
25.10000	264
25.10833	263
25.11667	263
25.12500	262
25.13333	262
25.14167	261
25.15000	260
25.15833	260
25.16667	260
25.17500	261
25.18333	261
25.19167	261
25.20000	261
25.20833	260
25.21667	260
25.22500	259
25.23333	259
25.24167	259
25.25000	259
25.25833	259
25.26667	259
25.27500	258
25.28333	258
25.29167	258
25.30000	258
25.30833	258
25.31667	258
25.32500	258
25.33333	258
25.34167	258
25.35000	258
25.35833	258
25.36667	258
25.37500	258
25.38333	258
25.39167	258
25.40000	258
25.40833	259
25.41667	259
25.42500	259
25.43333	260
25.44167	260
25.45000	260
25.45833	260
25.46667	260
25.47500	260
25.48333	260
25.49167	260
25.50000	261
25.50833	261
25.51667	261
25.52500	262
25.53333	262
25.54167	263
25.55000	263
25.55833	264
25.56667	264
25.57500	264
25.58333	265
25.59167	265
25.60000	265
25.60833	265
25.61667	266
25.62500	267
25.63333	267
25.64167	268
25.65000	268
25.65833	269
25.66667	269
25.67500	270
25.68333	270
25.69167	271
25.70000	271
25.70833	271
25.71667	272
25.72500	273
25.73333	273
25.74167	274
25.75000	274
25.75833	274
25.76667	274
25.77500	274
25.78333	275
25.79167	275
25.80000	276
25.80833	276
25.81667	277
25.82500	278
25.83333	279
25.84167	280
25.85000	281
25.85833	282
25.86667	283
25.87500	285
25.88333	286
25.89167	287
25.90000	288
25.90833	290
25.91667	291
25.92500	293
25.93333	295
25.94167	297
25.95000	299
25.95833	301
25.96667	304
25.97500	307
25.98333	309
25.99167	312
26.00000	315
26.00833	318
26.01667	322
26.02500	326
26.03333	330
26.04167	335
26.05000	340
26.05833	346
26.06667	351
26.07500	358
26.08333	364
26.09167	371
26.10000	379
26.10833	387
26.11667	395
26.12500	404
26.13333	414
26.14167	425
26.15000	435
26.15833	447
26.16667	459
26.17500	472
26.18333	486
26.19167	501
26.20000	516
26.20833	532
26.21667	548
26.22500	566
26.23333	585
26.24167	605
26.25000	625
26.25833	647
26.26667	669
26.27500	692
26.28333	716
26.29167	742
26.30000	768
26.30833	794
26.31667	822
26.32500	849
26.33333	878
26.34167	906
26.35000	936
26.35833	965
26.36667	995
26.37500	1025
26.38333	1054
26.39167	1083
26.40000	1112
26.40833	1141
26.41667	1169
26.42500	1197
26.43333	1224
26.44167	1250
26.45000	1275
26.45833	1299
26.46667	1322
26.47500	1343
26.48333	1362
26.49167	1380
26.50000	1395
26.50833	1409
26.51667	1421
26.52500	1431
26.53333	1439
26.54167	1444
26.55000	1448
26.55833	1449
26.56667	1449
26.57500	1446
26.58333	1440
26.59167	1433
26.60000	1423
26.60833	1411
26.61667	1397
26.62500	1382
26.63333	1365
26.64167	1346
26.65000	1326
26.65833	1304
26.66667	1282
26.67500	1257
26.68333	1232
26.69167	1206
26.70000	1179
26.70833	1152
26.71667	1124
26.72500	1096
26.73333	1067
26.74167	1039
26.75000	1010
26.75833	981
26.76667	952
26.77500	923
26.78333	895
26.79167	867
26.80000	840
26.80833	813
26.81667	787
26.82500	761
26.83333	736
26.84167	713
26.85000	689
26.85833	667
26.86667	645
26.87500	624
26.88333	603
26.89167	583
26.90000	564
26.90833	546
26.91667	528
26.92500	512
26.93333	496
26.94167	480
26.95000	466
26.95833	452
26.96667	438
26.97500	425
26.98333	413
26.99167	401
27.00000	390
27.00833	379
27.01667	369
27.02500	359
27.03333	349
27.04167	340
27.05000	332
27.05833	323
27.06667	315
27.07500	307
27.08333	299
27.09167	292
27.10000	285
27.10833	278
27.11667	272
27.12500	266
27.13333	260
27.14167	254
27.15000	248
27.15833	243
27.16667	237
27.17500	232
27.18333	226
27.19167	221
27.20000	216
27.20833	212
27.21667	207
27.22500	203
27.23333	198
27.24167	194
27.25000	190
27.25833	186
27.26667	183
27.27500	179
27.28333	175
27.29167	171
27.30000	167
27.30833	164
27.31667	160
27.32500	157
27.33333	153
27.34167	150
27.35000	147
27.35833	144
27.36667	141
27.37500	138
27.38333	135
27.39167	132
27.40000	130
27.40833	127
27.41667	125
27.42500	122
27.43333	120
27.44167	117
27.45000	115
27.45833	113
27.46667	111
27.47500	109
27.48333	106
27.49167	104
27.50000	102
27.50833	100
27.51667	98
27.52500	96
27.53333	94
27.54167	92
27.55000	90
27.55833	89
27.56667	87
27.57500	86
27.58333	84
27.59167	83
27.60000	82
27.60833	81
27.61667	79
27.62500	78
27.63333	77
27.64167	75
27.65000	75
27.65833	74
27.66667	72
27.67500	71
27.68333	70
27.69167	69
27.70000	67
27.70833	66
27.71667	65
27.72500	64
27.73333	63
27.74167	62
27.75000	61
27.75833	60
27.76667	59
27.77500	58
27.78333	58
27.79167	57
27.80000	56
27.80833	55
27.81667	55
27.82500	54
27.83333	53
27.84167	53
27.85000	52
27.85833	51
27.86667	50
27.87500	50
27.88333	49
27.89167	49
27.90000	48
27.90833	47
27.91667	47
27.92500	46
27.93333	45
27.94167	45
27.95000	44
27.95833	44
27.96667	43
27.97500	43
27.98333	42
27.99167	42
28.00000	41

