R.Time (min)	Intensity
0.00000	-10
0.00833	-10
0.01667	-0
0.02500	-0
0.03333	-0
0.04167	-1
0.05000	-1
0.05833	-1
0.06667	-1
0.07500	-1
0.08333	-2
0.09167	-2
0.10000	-2
0.10833	-1
0.11667	-1
0.12500	-1
0.13333	-1
0.14167	-1
0.15000	-1
0.15833	-1
0.16667	-1
0.17500	-1
0.18333	-1
0.19167	-1
0.20000	-1
0.20833	-1
0.21667	-1
0.22500	-1
0.23333	-1
0.24167	-2
0.25000	-2
0.25833	-2
0.26667	-2
0.27500	-2
0.28333	-2
0.29167	-2
0.30000	-2
0.30833	-3
0.31667	-3
0.32500	-3
0.33333	-3
0.34167	-4
0.35000	-4
0.35833	-5
0.36667	-5
0.37500	-5
0.38333	-5
0.39167	-5
0.40000	-6
0.40833	-6
0.41667	-6
0.42500	-6
0.43333	-6
0.44167	-7
0.45000	-7
0.45833	-8
0.46667	-8
0.47500	-9
0.48333	-9
0.49167	-9
0.50000	-10
0.50833	-10
0.51667	-10
0.52500	-11
0.53333	-11
0.54167	-11
0.55000	-11
0.55833	-12
0.56667	-12
0.57500	-12
0.58333	-13
0.59167	-13
0.60000	-13
0.60833	-13
0.61667	-13
0.62500	-12
0.63333	-12
0.64167	-12
0.65000	-12
0.65833	-12
0.66667	-12
0.67500	-13
0.68333	-13
0.69167	-13
0.70000	-13
0.70833	-13
0.71667	-13
0.72500	-13
0.73333	-13
0.74167	-13
0.75000	-13
0.75833	-13
0.76667	-14
0.77500	-14
0.78333	-14
0.79167	-15
0.80000	-15
0.80833	-15
0.81667	-15
0.82500	-15
0.83333	-15
0.84167	-15
0.85000	-15
0.85833	-15
0.86667	-15
0.87500	-16
0.88333	-15
0.89167	-16
0.90000	-16
0.90833	-16
0.91667	-16
0.92500	-16
0.93333	-16
0.94167	-15
0.95000	-15
0.95833	-15
0.96667	-16
0.97500	-16
0.98333	-16
0.99167	-16
1.00000	-17
1.00833	-17
1.01667	-17
1.02500	-17
1.03333	-18
1.04167	-18
1.05000	-18
1.05833	-19
1.06667	-19
1.07500	-18
1.08333	-18
1.09167	-18
1.10000	-18
1.10833	-18
1.11667	-18
1.12500	-18
1.13333	-19
1.14167	-19
1.15000	-19
1.15833	-20
1.16667	-20
1.17500	-20
1.18333	-20
1.19167	-20
1.20000	-20
1.20833	-20
1.21667	-20
1.22500	-20
1.23333	-21
1.24167	-21
1.25000	-21
1.25833	-21
1.26667	-21
1.27500	-22
1.28333	-22
1.29167	-22
1.30000	-22
1.30833	-23
1.31667	-23
1.32500	-24
1.33333	-24
1.34167	-25
1.35000	-25
1.35833	-25
1.36667	-25
1.37500	-25
1.38333	-25
1.39167	-26
1.40000	-26
1.40833	-26
1.41667	-26
1.42500	-26
1.43333	-27
1.44167	-27
1.45000	-27
1.45833	-27
1.46667	-27
1.47500	-27
1.48333	-27
1.49167	-27
1.50000	-27
1.50833	-27
1.51667	-28
1.52500	-28
1.53333	-27
1.54167	-27
1.55000	-27
1.55833	-27
1.56667	-27
1.57500	-28
1.58333	-28
1.59167	-28
1.60000	-27
1.60833	-27
1.61667	-27
1.62500	-27
1.63333	-27
1.64167	-26
1.65000	-26
1.65833	-26
1.66667	-27
1.67500	-27
1.68333	-27
1.69167	-27
1.70000	-27
1.70833	-27
1.71667	-27
1.72500	-26
1.73333	-26
1.74167	-26
1.75000	-26
1.75833	-26
1.76667	-26
1.77500	-26
1.78333	-27
1.79167	-26
1.80000	-27
1.80833	-27
1.81667	-27
1.82500	-28
1.83333	-27
1.84167	-27
1.85000	-27
1.85833	-26
1.86667	-26
1.87500	-26
1.88333	-26
1.89167	-26
1.90000	-26
1.90833	-26
1.91667	-26
1.92500	-26
1.93333	-26
1.94167	-25
1.95000	-25
1.95833	-26
1.96667	-26
1.97500	-26
1.98333	-26
1.99167	-26
2.00000	-26
2.00833	-26
2.01667	-25
2.02500	-25
2.03333	-25
2.04167	-25
2.05000	-25
2.05833	-25
2.06667	-24
2.07500	-24
2.08333	-25
2.09167	-25
2.10000	-25
2.10833	-25
2.11667	-25
2.12500	-25
2.13333	-25
2.14167	-25
2.15000	-25
2.15833	-25
2.16667	-25
2.17500	-25
2.18333	-25
2.19167	-25
2.20000	-25
2.20833	-24
2.21667	-24
2.22500	-24
2.23333	-23
2.24167	-23
2.25000	-22
2.25833	-21
2.26667	-21
2.27500	-20
2.28333	-20
2.29167	-19
2.30000	-18
2.30833	-17
2.31667	-16
2.32500	-15
2.33333	-14
2.34167	-13
2.35000	-12
2.35833	-11
2.36667	-10
2.37500	-9
2.38333	-7
2.39167	-5
2.40000	-3
2.40833	-1
2.41667	1
2.42500	3
2.43333	5
2.44167	8
2.45000	10
2.45833	12
2.46667	15
2.47500	18
2.48333	20
2.49167	23
2.50000	27
2.50833	30
2.51667	34
2.52500	38
2.53333	42
2.54167	46
2.55000	51
2.55833	55
2.56667	60
2.57500	65
2.58333	70
2.59167	76
2.60000	82
2.60833	88
2.61667	95
2.62500	102
2.63333	109
2.64167	117
2.65000	125
2.65833	134
2.66667	142
2.67500	152
2.68333	162
2.69167	172
2.70000	183
2.70833	194
2.71667	206
2.72500	219
2.73333	232
2.74167	246
2.75000	261
2.75833	277
2.76667	293
2.77500	311
2.78333	329
2.79167	349
2.80000	370
2.80833	391
2.81667	414
2.82500	438
2.83333	463
2.84167	489
2.85000	517
2.85833	546
2.86667	577
2.87500	609
2.88333	643
2.89167	678
2.90000	715
2.90833	754
2.91667	795
2.92500	839
2.93333	884
2.94167	932
2.95000	981
2.95833	1033
2.96667	1087
2.97500	1143
2.98333	1201
2.99167	1262
3.00000	1325
3.00833	1391
3.01667	1459
3.02500	1529
3.03333	1602
3.04167	1678
3.05000	1755
3.05833	1835
3.06667	1917
3.07500	2001
3.08333	2087
3.09167	2175
3.10000	2264
3.10833	2354
3.11667	2446
3.12500	2540
3.13333	2634
3.14167	2730
3.15000	2826
3.15833	2922
3.16667	3018
3.17500	3114
3.18333	3209
3.19167	3304
3.20000	3397
3.20833	3489
3.21667	3579
3.22500	3667
3.23333	3752
3.24167	3835
3.25000	3914
3.25833	3990
3.26667	4062
3.27500	4130
3.28333	4193
3.29167	4252
3.30000	4307
3.30833	4357
3.31667	4401
3.32500	4440
3.33333	4473
3.34167	4501
3.35000	4522
3.35833	4538
3.36667	4547
3.37500	4550
3.38333	4548
3.39167	4539
3.40000	4524
3.40833	4503
3.41667	4476
3.42500	4443
3.43333	4405
3.44167	4361
3.45000	4313
3.45833	4259
3.46667	4201
3.47500	4138
3.48333	4070
3.49167	3999
3.50000	3925
3.50833	3847
3.51667	3766
3.52500	3682
3.53333	3595
3.54167	3506
3.55000	3416
3.55833	3324
3.56667	3230
3.57500	3135
3.58333	3040
3.59167	2945
3.60000	2849
3.60833	2753
3.61667	2658
3.62500	2563
3.63333	2469
3.64167	2376
3.65000	2284
3.65833	2194
3.66667	2106
3.67500	2020
3.68333	1935
3.69167	1852
3.70000	1771
3.70833	1693
3.71667	1616
3.72500	1543
3.73333	1471
3.74167	1403
3.75000	1336
3.75833	1272
3.76667	1210
3.77500	1150
3.78333	1093
3.79167	1039
3.80000	987
3.80833	937
3.81667	890
3.82500	845
3.83333	802
3.84167	761
3.85000	723
3.85833	687
3.86667	652
3.87500	620
3.88333	589
3.89167	560
3.90000	532
3.90833	507
3.91667	483
3.92500	460
3.93333	438
3.94167	418
3.95000	399
3.95833	382
3.96667	365
3.97500	350
3.98333	336
3.99167	322
4.00000	309
4.00833	297
4.01667	286
4.02500	276
4.03333	266
4.04167	257
4.05000	249
4.05833	240
4.06667	233
4.07500	225
4.08333	219
4.09167	212
4.10000	206
4.10833	201
4.11667	195
4.12500	189
4.13333	184
4.14167	179
4.15000	173
4.15833	168
4.16667	162
4.17500	157
4.18333	153
4.19167	148
4.20000	143
4.20833	139
4.21667	134
4.22500	130
4.23333	125
4.24167	121
4.25000	117
4.25833	114
4.26667	110
4.27500	106
4.28333	102
4.29167	98
4.30000	94
4.30833	91
4.31667	87
4.32500	84
4.33333	80
4.34167	77
4.35000	73
4.35833	69
4.36667	66
4.37500	63
4.38333	59
4.39167	56
4.40000	53
4.40833	50
4.41667	47
4.42500	44
4.43333	41
4.44167	38
4.45000	35
4.45833	33
4.46667	30
4.47500	28
4.48333	26
4.49167	23
4.50000	21
4.50833	19
4.51667	18
4.52500	16
4.53333	14
4.54167	12
4.55000	11
4.55833	9
4.56667	7
4.57500	6
4.58333	5
4.59167	3
4.60000	2
4.60833	1
4.61667	1
4.62500	-0
4.63333	-1
4.64167	-2
4.65000	-3
4.65833	-3
4.66667	-4
4.67500	-5
4.68333	-5
4.69167	-6
4.70000	-6
4.70833	-7
4.71667	-8
4.72500	-8
4.73333	-8
4.74167	-8
4.75000	-8
4.75833	-9
4.76667	-9
4.77500	-9
4.78333	-10
4.79167	-10
4.80000	-10
4.80833	-9
4.81667	-9
4.82500	-9
4.83333	-9
4.84167	-9
4.85000	-9
4.85833	-9
4.86667	-9
4.87500	-9
4.88333	-9
4.89167	-9
4.90000	-9
4.90833	-9
4.91667	-9
4.92500	-9
4.93333	-8
4.94167	-8
4.95000	-8
4.95833	-7
4.96667	-7
4.97500	-6
4.98333	-6
4.99167	-6
5.00000	-6
5.00833	-5
5.01667	-5
5.02500	-5
5.03333	-5
5.04167	-4
5.05000	-4
5.05833	-3
5.06667	-2
5.07500	-2
5.08333	-2
5.09167	-1
5.10000	-1
5.10833	-1
5.11667	-1
5.12500	-1
5.13333	-2
5.14167	-1
5.15000	-1
5.15833	-1
5.16667	-1
5.17500	-1
5.18333	-0
5.19167	-0
5.20000	-0
5.20833	-0
5.21667	-0
5.22500	-0
5.23333	-0
5.24167	-0
5.25000	-0
5.25833	-0
5.26667	-0
5.27500	-1
5.28333	-1
5.29167	-2
5.30000	-2
5.30833	-2
5.31667	-2
5.32500	-3
5.33333	-3
5.34167	-3
5.35000	-2
5.35833	-2
5.36667	-3
5.37500	-4
5.38333	-4
5.39167	-5
5.40000	-5
5.40833	-5
5.41667	-6
5.42500	-6
5.43333	-6
5.44167	-7
5.45000	-7
5.45833	-8
5.46667	-9
5.47500	-10
5.48333	-10
5.49167	-10
5.50000	-11
5.50833	-11
5.51667	-11
5.52500	-12
5.53333	-12
5.54167	-13
5.55000	-13
5.55833	-14
5.56667	-15
5.57500	-16
5.58333	-16
5.59167	-16
5.60000	-17
5.60833	-17
5.61667	-17
5.62500	-17
5.63333	-17
5.64167	-17
5.65000	-17
5.65833	-17
5.66667	-17
5.67500	-17
5.68333	-17
5.69167	-17
5.70000	-18
5.70833	-18
5.71667	-19
5.72500	-19
5.73333	-19
5.74167	-19
5.75000	-20
5.75833	-20
5.76667	-19
5.77500	-19
5.78333	-20
5.79167	-20
5.80000	-21
5.80833	-21
5.81667	-21
5.82500	-21
5.83333	-21
5.84167	-21
5.85000	-21
5.85833	-21
5.86667	-21
5.87500	-21
5.88333	-21
5.89167	-20
5.90000	-20
5.90833	-20
5.91667	-21
5.92500	-21
5.93333	-21
5.94167	-21
5.95000	-21
5.95833	-21
5.96667	-21
5.97500	-21
5.98333	-20
5.99167	-20
6.00000	-20
6.00833	-20
6.01667	-20
6.02500	-20
6.03333	-21
6.04167	-20
6.05000	-20
6.05833	-20
6.06667	-20
6.07500	-20
6.08333	-20
6.09167	-20
6.10000	-20
6.10833	-20
6.11667	-19
6.12500	-19
6.13333	-19
6.14167	-19
6.15000	-20
6.15833	-20
6.16667	-20
6.17500	-19
6.18333	-19
6.19167	-19
6.20000	-19
6.20833	-20
6.21667	-20
6.22500	-20
6.23333	-20
6.24167	-21
6.25000	-21
6.25833	-21
6.26667	-21
6.27500	-21
6.28333	-22
6.29167	-22
6.30000	-22
6.30833	-22
6.31667	-22
6.32500	-22
6.33333	-22
6.34167	-22
6.35000	-22
6.35833	-22
6.36667	-21
6.37500	-21
6.38333	-21
6.39167	-21
6.40000	-21
6.40833	-21
6.41667	-21
6.42500	-22
6.43333	-22
6.44167	-22
6.45000	-22
6.45833	-22
6.46667	-21
6.47500	-21
6.48333	-21
6.49167	-21
6.50000	-21
6.50833	-21
6.51667	-21
6.52500	-21
6.53333	-21
6.54167	-20
6.55000	-20
6.55833	-20
6.56667	-19
6.57500	-19
6.58333	-18
6.59167	-18
6.60000	-18
6.60833	-19
6.61667	-19
6.62500	-19
6.63333	-19
6.64167	-19
6.65000	-19
6.65833	-19
6.66667	-19
6.67500	-19
6.68333	-19
6.69167	-19
6.70000	-19
6.70833	-19
6.71667	-20
6.72500	-20
6.73333	-21
6.74167	-21
6.75000	-21
6.75833	-22
6.76667	-22
6.77500	-22
6.78333	-22
6.79167	-23
6.80000	-23
6.80833	-23
6.81667	-23
6.82500	-23
6.83333	-24
6.84167	-24
6.85000	-24
6.85833	-24
6.86667	-24
6.87500	-25
6.88333	-25
6.89167	-25
6.90000	-25
6.90833	-25
6.91667	-25
6.92500	-25
6.93333	-25
6.94167	-24
6.95000	-24
6.95833	-23
6.96667	-23
6.97500	-22
6.98333	-21
6.99167	-20
7.00000	-20
7.00833	-19
7.01667	-18
7.02500	-18
7.03333	-17
7.04167	-15
7.05000	-14
7.05833	-12
7.06667	-10
7.07500	-7
7.08333	-4
7.09167	0
7.10000	5
7.10833	10
7.11667	17
7.12500	24
7.13333	33
7.14167	42
7.15000	53
7.15833	65
7.16667	79
7.17500	94
7.18333	111
7.19167	130
7.20000	150
7.20833	172
7.21667	194
7.22500	218
7.23333	243
7.24167	267
7.25000	291
7.25833	315
7.26667	336
7.27500	354
7.28333	368
7.29167	374
7.30000	373
7.30833	363
7.31667	343
7.32500	316
7.33333	284
7.34167	253
7.35000	232
7.35833	235
7.36667	275
7.37500	369
7.38333	538
7.39167	800
7.40000	1175
7.40833	1681
7.41667	2333
7.42500	3142
7.43333	4113
7.44167	5245
7.45000	6528
7.45833	7947
7.46667	9472
7.47500	11066
7.48333	12681
7.49167	14261
7.50000	15742
7.50833	17059
7.51667	18148
7.52500	18956
7.53333	19444
7.54167	19589
7.55000	19395
7.55833	18881
7.56667	18087
7.57500	17066
7.58333	15878
7.59167	14586
7.60000	13250
7.60833	11921
7.61667	10641
7.62500	9443
7.63333	8346
7.64167	7361
7.65000	6492
7.65833	5736
7.66667	5085
7.67500	4530
7.68333	4058
7.69167	3659
7.70000	3320
7.70833	3032
7.71667	2785
7.72500	2572
7.73333	2387
7.74167	2224
7.75000	2078
7.75833	1947
7.76667	1829
7.77500	1722
7.78333	1623
7.79167	1532
7.80000	1447
7.80833	1368
7.81667	1294
7.82500	1224
7.83333	1158
7.84167	1096
7.85000	1037
7.85833	981
7.86667	927
7.87500	876
7.88333	828
7.89167	782
7.90000	739
7.90833	698
7.91667	661
7.92500	625
7.93333	593
7.94167	563
7.95000	537
7.95833	513
7.96667	492
7.97500	473
7.98333	457
7.99167	443
8.00000	431
8.00833	421
8.01667	413
8.02500	405
8.03333	398
8.04167	391
8.05000	385
8.05833	378
8.06667	372
8.07500	366
8.08333	359
8.09167	351
8.10000	343
8.10833	335
8.11667	327
8.12500	319
8.13333	311
8.14167	303
8.15000	295
8.15833	288
8.16667	280
8.17500	273
8.18333	266
8.19167	260
8.20000	254
8.20833	248
8.21667	244
8.22500	239
8.23333	235
8.24167	232
8.25000	228
8.25833	225
8.26667	223
8.27500	220
8.28333	218
8.29167	216
8.30000	215
8.30833	213
8.31667	212
8.32500	211
8.33333	210
8.34167	209
8.35000	208
8.35833	207
8.36667	206
8.37500	205
8.38333	205
8.39167	204
8.40000	203
8.40833	203
8.41667	202
8.42500	201
8.43333	200
8.44167	199
8.45000	197
8.45833	196
8.46667	195
8.47500	193
8.48333	191
8.49167	190
8.50000	188
8.50833	187
8.51667	185
8.52500	183
8.53333	182
8.54167	180
8.55000	179
8.55833	177
8.56667	176
8.57500	175
8.58333	174
8.59167	173
8.60000	172
8.60833	172
8.61667	171
8.62500	171
8.63333	171
8.64167	172
8.65000	173
8.65833	173
8.66667	174
8.67500	175
8.68333	177
8.69167	179
8.70000	181
8.70833	183
8.71667	186
8.72500	189
8.73333	192
8.74167	195
8.75000	199
8.75833	203
8.76667	207
8.77500	211
8.78333	216
8.79167	221
8.80000	226
8.80833	231
8.81667	238
8.82500	245
8.83333	253
8.84167	263
8.85000	275
8.85833	289
8.86667	305
8.87500	325
8.88333	349
8.89167	377
8.90000	412
8.90833	452
8.91667	499
8.92500	554
8.93333	618
8.94167	691
8.95000	773
8.95833	864
8.96667	964
8.97500	1072
8.98333	1186
8.99167	1307
9.00000	1431
9.00833	1558
9.01667	1683
9.02500	1805
9.03333	1921
9.04167	2029
9.05000	2126
9.05833	2210
9.06667	2281
9.07500	2335
9.08333	2372
9.09167	2392
9.10000	2394
9.10833	2379
9.11667	2348
9.12500	2303
9.13333	2244
9.14167	2173
9.15000	2092
9.15833	2004
9.16667	1910
9.17500	1812
9.18333	1712
9.19167	1612
9.20000	1512
9.20833	1415
9.21667	1322
9.22500	1232
9.23333	1148
9.24167	1069
9.25000	996
9.25833	928
9.26667	866
9.27500	810
9.28333	760
9.29167	715
9.30000	675
9.30833	640
9.31667	609
9.32500	582
9.33333	559
9.34167	540
9.35000	525
9.35833	513
9.36667	505
9.37500	501
9.38333	501
9.39167	505
9.40000	514
9.40833	527
9.41667	547
9.42500	574
9.43333	610
9.44167	657
9.45000	716
9.45833	791
9.46667	885
9.47500	1000
9.48333	1142
9.49167	1314
9.50000	1522
9.50833	1771
9.51667	2067
9.52500	2414
9.53333	2818
9.54167	3283
9.55000	3813
9.55833	4409
9.56667	5073
9.57500	5804
9.58333	6599
9.59167	7452
9.60000	8357
9.60833	9305
9.61667	10284
9.62500	11281
9.63333	12283
9.64167	13274
9.65000	14237
9.65833	15158
9.66667	16021
9.67500	16813
9.68333	17521
9.69167	18134
9.70000	18646
9.70833	19051
9.71667	19348
9.72500	19537
9.73333	19622
9.74167	19609
9.75000	19508
9.75833	19327
9.76667	19079
9.77500	18776
9.78333	18432
9.79167	18061
9.80000	17674
9.80833	17285
9.81667	16906
9.82500	16546
9.83333	16214
9.84167	15919
9.85000	15666
9.85833	15460
9.86667	15304
9.87500	15202
9.88333	15154
9.89167	15160
9.90000	15220
9.90833	15332
9.91667	15495
9.92500	15705
9.93333	15961
9.94167	16260
9.95000	16597
9.95833	16970
9.96667	17376
9.97500	17811
9.98333	18271
9.99167	18754
10.00000	19256
10.00833	19773
10.01667	20300
10.02500	20834
10.03333	21366
10.04167	21888
10.05000	22385
10.05833	22839
10.06667	23221
10.07500	23497
10.08333	23631
10.09167	23584
10.10000	23320
10.10833	22817
10.11667	22064
10.12500	21072
10.13333	19866
10.14167	18490
10.15000	16995
10.15833	15436
10.16667	13870
10.17500	12343
10.18333	10894
10.19167	9550
10.20000	8330
10.20833	7240
10.21667	6282
10.22500	5449
10.23333	4733
10.24167	4121
10.25000	3602
10.25833	3164
10.26667	2795
10.27500	2484
10.28333	2222
10.29167	2001
10.30000	1814
10.30833	1654
10.31667	1517
10.32500	1399
10.33333	1296
10.34167	1206
10.35000	1126
10.35833	1054
10.36667	990
10.37500	932
10.38333	878
10.39167	829
10.40000	784
10.40833	743
10.41667	704
10.42500	668
10.43333	635
10.44167	605
10.45000	578
10.45833	554
10.46667	532
10.47500	512
10.48333	495
10.49167	480
10.50000	468
10.50833	458
10.51667	450
10.52500	444
10.53333	441
10.54167	439
10.55000	440
10.55833	442
10.56667	445
10.57500	450
10.58333	455
10.59167	462
10.60000	469
10.60833	476
10.61667	484
10.62500	492
10.63333	501
10.64167	510
10.65000	520
10.65833	532
10.66667	545
10.67500	560
10.68333	579
10.69167	602
10.70000	630
10.70833	665
10.71667	709
10.72500	762
10.73333	827
10.74167	905
10.75000	998
10.75833	1107
10.76667	1235
10.77500	1382
10.78333	1549
10.79167	1736
10.80000	1943
10.80833	2169
10.81667	2412
10.82500	2671
10.83333	2941
10.84167	3220
10.85000	3501
10.85833	3782
10.86667	4056
10.87500	4318
10.88333	4564
10.89167	4787
10.90000	4983
10.90833	5148
10.91667	5279
10.92500	5374
10.93333	5431
10.94167	5449
10.95000	5429
10.95833	5372
10.96667	5281
10.97500	5158
10.98333	5007
10.99167	4831
11.00000	4635
11.00833	4423
11.01667	4200
11.02500	3968
11.03333	3733
11.04167	3497
11.05000	3263
11.05833	3036
11.06667	2816
11.07500	2606
11.08333	2406
11.09167	2219
11.10000	2045
11.10833	1883
11.11667	1733
11.12500	1597
11.13333	1473
11.14167	1361
11.15000	1260
11.15833	1169
11.16667	1088
11.17500	1015
11.18333	951
11.19167	895
11.20000	845
11.20833	801
11.21667	761
11.22500	726
11.23333	695
11.24167	667
11.25000	642
11.25833	618
11.26667	596
11.27500	575
11.28333	556
11.29167	538
11.30000	521
11.30833	504
11.31667	488
11.32500	471
11.33333	455
11.34167	439
11.35000	423
11.35833	408
11.36667	393
11.37500	380
11.38333	366
11.39167	352
11.40000	339
11.40833	327
11.41667	315
11.42500	304
11.43333	293
11.44167	282
11.45000	272
11.45833	262
11.46667	254
11.47500	246
11.48333	237
11.49167	230
11.50000	223
11.50833	216
11.51667	211
11.52500	205
11.53333	200
11.54167	196
11.55000	192
11.55833	188
11.56667	184
11.57500	180
11.58333	177
11.59167	174
11.60000	172
11.60833	169
11.61667	168
11.62500	167
11.63333	166
11.64167	165
11.65000	164
11.65833	164
11.66667	164
11.67500	164
11.68333	165
11.69167	166
11.70000	168
11.70833	170
11.71667	172
11.72500	175
11.73333	178
11.74167	181
11.75000	184
11.75833	187
11.76667	190
11.77500	192
11.78333	195
11.79167	196
11.80000	198
11.80833	198
11.81667	199
11.82500	198
11.83333	197
11.84167	196
11.85000	194
11.85833	191
11.86667	188
11.87500	184
11.88333	180
11.89167	176
11.90000	171
11.90833	167
11.91667	162
11.92500	158
11.93333	153
11.94167	149
11.95000	144
11.95833	140
11.96667	136
11.97500	133
11.98333	129
11.99167	126
12.00000	123
12.00833	120
12.01667	118
12.02500	116
12.03333	114
12.04167	113
12.05000	111
12.05833	111
12.06667	110
12.07500	109
12.08333	109
12.09167	108
12.10000	108
12.10833	108
12.11667	107
12.12500	107
12.13333	107
12.14167	107
12.15000	106
12.15833	106
12.16667	105
12.17500	105
12.18333	104
12.19167	103
12.20000	102
12.20833	101
12.21667	100
12.22500	99
12.23333	99
12.24167	98
12.25000	97
12.25833	96
12.26667	95
12.27500	94
12.28333	93
12.29167	92
12.30000	90
12.30833	89
12.31667	87
12.32500	86
12.33333	85
12.34167	83
12.35000	81
12.35833	79
12.36667	78
12.37500	76
12.38333	74
12.39167	72
12.40000	70
12.40833	69
12.41667	67
12.42500	66
12.43333	64
12.44167	63
12.45000	61
12.45833	60
12.46667	58
12.47500	57
12.48333	56
12.49167	55
12.50000	55
12.50833	55
12.51667	54
12.52500	54
12.53333	55
12.54167	55
12.55000	56
12.55833	56
12.56667	56
12.57500	56
12.58333	57
12.59167	58
12.60000	58
12.60833	59
12.61667	61
12.62500	62
12.63333	63
12.64167	64
12.65000	66
12.65833	67
12.66667	69
12.67500	70
12.68333	72
12.69167	73
12.70000	75
12.70833	76
12.71667	78
12.72500	79
12.73333	79
12.74167	80
12.75000	81
12.75833	81
12.76667	81
12.77500	82
12.78333	83
12.79167	83
12.80000	84
12.80833	84
12.81667	84
12.82500	84
12.83333	84
12.84167	85
12.85000	85
12.85833	85
12.86667	85
12.87500	85
12.88333	86
12.89167	86
12.90000	86
12.90833	87
12.91667	87
12.92500	88
12.93333	88
12.94167	88
12.95000	89
12.95833	90
12.96667	91
12.97500	93
12.98333	94
12.99167	95
13.00000	97
13.00833	98
13.01667	98
13.02500	99
13.03333	100
13.04167	101
13.05000	102
13.05833	103
13.06667	104
13.07500	105
13.08333	105
13.09167	106
13.10000	106
13.10833	106
13.11667	107
13.12500	107
13.13333	107
13.14167	107
13.15000	106
13.15833	105
13.16667	105
13.17500	104
13.18333	103
13.19167	103
13.20000	102
13.20833	101
13.21667	100
13.22500	100
13.23333	99
13.24167	99
13.25000	99
13.25833	99
13.26667	99
13.27500	99
13.28333	100
13.29167	100
13.30000	101
13.30833	102
13.31667	103
13.32500	104
13.33333	105
13.34167	106
13.35000	106
13.35833	107
13.36667	108
13.37500	109
13.38333	110
13.39167	111
13.40000	112
13.40833	112
13.41667	113
13.42500	114
13.43333	115
13.44167	115
13.45000	116
13.45833	117
13.46667	118
13.47500	120
13.48333	122
13.49167	123
13.50000	124
13.50833	126
13.51667	128
13.52500	131
13.53333	134
13.54167	137
13.55000	140
13.55833	144
13.56667	149
13.57500	154
13.58333	160
13.59167	166
13.60000	173
13.60833	180
13.61667	188
13.62500	196
13.63333	205
13.64167	214
13.65000	224
13.65833	234
13.66667	244
13.67500	255
13.68333	265
13.69167	275
13.70000	285
13.70833	295
13.71667	304
13.72500	312
13.73333	321
13.74167	328
13.75000	336
13.75833	343
13.76667	349
13.77500	354
13.78333	359
13.79167	363
13.80000	367
13.80833	371
13.81667	375
13.82500	379
13.83333	384
13.84167	388
13.85000	392
13.85833	397
13.86667	402
13.87500	408
13.88333	414
13.89167	420
13.90000	427
13.90833	433
13.91667	439
13.92500	445
13.93333	451
13.94167	456
13.95000	460
13.95833	464
13.96667	468
13.97500	470
13.98333	471
13.99167	471
14.00000	470
14.00833	467
14.01667	463
14.02500	459
14.03333	454
14.04167	447
14.05000	440
14.05833	432
14.06667	424
14.07500	415
14.08333	406
14.09167	397
14.10000	387
14.10833	378
14.11667	369
14.12500	360
14.13333	352
14.14167	344
14.15000	336
14.15833	330
14.16667	323
14.17500	317
14.18333	312
14.19167	306
14.20000	302
14.20833	298
14.21667	295
14.22500	292
14.23333	290
14.24167	288
14.25000	287
14.25833	286
14.26667	285
14.27500	284
14.28333	284
14.29167	284
14.30000	284
14.30833	284
14.31667	284
14.32500	285
14.33333	286
14.34167	287
14.35000	288
14.35833	289
14.36667	291
14.37500	292
14.38333	294
14.39167	295
14.40000	296
14.40833	297
14.41667	298
14.42500	300
14.43333	301
14.44167	302
14.45000	304
14.45833	305
14.46667	306
14.47500	308
14.48333	309
14.49167	310
14.50000	311
14.50833	312
14.51667	313
14.52500	314
14.53333	315
14.54167	315
14.55000	316
14.55833	316
14.56667	317
14.57500	317
14.58333	317
14.59167	318
14.60000	318
14.60833	318
14.61667	318
14.62500	318
14.63333	318
14.64167	318
14.65000	318
14.65833	318
14.66667	318
14.67500	318
14.68333	318
14.69167	318
14.70000	318
14.70833	318
14.71667	319
14.72500	319
14.73333	319
14.74167	319
14.75000	318
14.75833	318
14.76667	318
14.77500	317
14.78333	317
14.79167	316
14.80000	316
14.80833	316
14.81667	316
14.82500	315
14.83333	315
14.84167	315
14.85000	315
14.85833	315
14.86667	315
14.87500	315
14.88333	315
14.89167	315
14.90000	314
14.90833	314
14.91667	314
14.92500	313
14.93333	314
14.94167	314
14.95000	314
14.95833	314
14.96667	314
14.97500	315
14.98333	315
14.99167	316
15.00000	316
15.00833	317
15.01667	319
15.02500	320
15.03333	322
15.04167	325
15.05000	328
15.05833	331
15.06667	336
15.07500	340
15.08333	345
15.09167	351
15.10000	358
15.10833	366
15.11667	374
15.12500	383
15.13333	393
15.14167	404
15.15000	416
15.15833	429
15.16667	442
15.17500	455
15.18333	469
15.19167	483
15.20000	496
15.20833	510
15.21667	523
15.22500	535
15.23333	547
15.24167	558
15.25000	568
15.25833	576
15.26667	582
15.27500	587
15.28333	590
15.29167	592
15.30000	591
15.30833	588
15.31667	584
15.32500	578
15.33333	571
15.34167	561
15.35000	550
15.35833	538
15.36667	525
15.37500	511
15.38333	496
15.39167	479
15.40000	463
15.40833	447
15.41667	430
15.42500	414
15.43333	398
15.44167	382
15.45000	366
15.45833	352
15.46667	337
15.47500	324
15.48333	310
15.49167	298
15.50000	286
15.50833	275
15.51667	264
15.52500	254
15.53333	245
15.54167	236
15.55000	227
15.55833	220
15.56667	212
15.57500	206
15.58333	199
15.59167	193
15.60000	188
15.60833	183
15.61667	179
15.62500	174
15.63333	171
15.64167	167
15.65000	164
15.65833	161
15.66667	158
15.67500	156
15.68333	153
15.69167	151
15.70000	149
15.70833	148
15.71667	146
15.72500	145
15.73333	144
15.74167	143
15.75000	142
15.75833	141
15.76667	141
15.77500	141
15.78333	140
15.79167	141
15.80000	141
15.80833	141
15.81667	141
15.82500	141
15.83333	142
15.84167	143
15.85000	144
15.85833	145
15.86667	146
15.87500	147
15.88333	149
15.89167	151
15.90000	154
15.90833	157
15.91667	161
15.92500	165
15.93333	170
15.94167	175
15.95000	181
15.95833	188
15.96667	195
15.97500	203
15.98333	213
15.99167	224
16.00000	235
16.00833	247
16.01667	260
16.02500	273
16.03333	288
16.04167	302
16.05000	317
16.05833	332
16.06667	347
16.07500	362
16.08333	377
16.09167	391
16.10000	405
16.10833	417
16.11667	429
16.12500	439
16.13333	448
16.14167	455
16.15000	460
16.15833	465
16.16667	468
16.17500	469
16.18333	468
16.19167	466
16.20000	462
16.20833	457
16.21667	451
16.22500	444
16.23333	436
16.24167	428
16.25000	418
16.25833	409
16.26667	399
16.27500	390
16.28333	381
16.29167	372
16.30000	364
16.30833	356
16.31667	350
16.32500	343
16.33333	338
16.34167	334
16.35000	331
16.35833	330
16.36667	329
16.37500	330
16.38333	332
16.39167	335
16.40000	339
16.40833	345
16.41667	352
16.42500	361
16.43333	371
16.44167	382
16.45000	394
16.45833	408
16.46667	424
16.47500	441
16.48333	460
16.49167	479
16.50000	500
16.50833	522
16.51667	545
16.52500	569
16.53333	593
16.54167	618
16.55000	643
16.55833	669
16.56667	695
16.57500	720
16.58333	745
16.59167	768
16.60000	790
16.60833	811
16.61667	830
16.62500	848
16.63333	863
16.64167	875
16.65000	884
16.65833	891
16.66667	895
16.67500	896
16.68333	893
16.69167	888
16.70000	879
16.70833	868
16.71667	854
16.72500	837
16.73333	818
16.74167	798
16.75000	775
16.75833	751
16.76667	725
16.77500	698
16.78333	672
16.79167	645
16.80000	617
16.80833	590
16.81667	563
16.82500	535
16.83333	509
16.84167	484
16.85000	459
16.85833	436
16.86667	413
16.87500	392
16.88333	371
16.89167	352
16.90000	334
16.90833	316
16.91667	300
16.92500	285
16.93333	271
16.94167	258
16.95000	246
16.95833	235
16.96667	225
16.97500	215
16.98333	206
16.99167	198
17.00000	190
17.00833	183
17.01667	176
17.02500	170
17.03333	165
17.04167	160
17.05000	155
17.05833	151
17.06667	147
17.07500	143
17.08333	140
17.09167	136
17.10000	133
17.10833	130
17.11667	128
17.12500	125
17.13333	123
17.14167	122
17.15000	120
17.15833	119
17.16667	117
17.17500	116
17.18333	115
17.19167	114
17.20000	113
17.20833	112
17.21667	111
17.22500	109
17.23333	108
17.24167	107
17.25000	107
17.25833	106
17.26667	106
17.27500	106
17.28333	105
17.29167	105
17.30000	104
17.30833	104
17.31667	103
17.32500	103
17.33333	102
17.34167	102
17.35000	102
17.35833	102
17.36667	102
17.37500	102
17.38333	102
17.39167	102
17.40000	101
17.40833	101
17.41667	101
17.42500	102
17.43333	102
17.44167	102
17.45000	103
17.45833	103
17.46667	104
17.47500	104
17.48333	105
17.49167	105
17.50000	106
17.50833	107
17.51667	108
17.52500	110
17.53333	111
17.54167	113
17.55000	114
17.55833	116
17.56667	117
17.57500	119
17.58333	121
17.59167	124
17.60000	126
17.60833	129
17.61667	132
17.62500	135
17.63333	139
17.64167	142
17.65000	146
17.65833	150
17.66667	155
17.67500	160
17.68333	166
17.69167	173
17.70000	180
17.70833	187
17.71667	195
17.72500	204
17.73333	214
17.74167	226
17.75000	238
17.75833	251
17.76667	265
17.77500	281
17.78333	298
17.79167	317
17.80000	338
17.80833	362
17.81667	388
17.82500	417
17.83333	449
17.84167	484
17.85000	523
17.85833	565
17.86667	612
17.87500	664
17.88333	720
17.89167	782
17.90000	849
17.90833	922
17.91667	1002
17.92500	1088
17.93333	1180
17.94167	1279
17.95000	1384
17.95833	1496
17.96667	1614
17.97500	1738
17.98333	1868
17.99167	2003
18.00000	2141
18.00833	2283
18.01667	2427
18.02500	2573
18.03333	2719
18.04167	2863
18.05000	3005
18.05833	3143
18.06667	3275
18.07500	3401
18.08333	3518
18.09167	3625
18.10000	3722
18.10833	3806
18.11667	3878
18.12500	3936
18.13333	3979
18.14167	4008
18.15000	4023
18.15833	4021
18.16667	4005
18.17500	3975
18.18333	3930
18.19167	3872
18.20000	3801
18.20833	3719
18.21667	3626
18.22500	3525
18.23333	3415
18.24167	3298
18.25000	3176
18.25833	3050
18.26667	2920
18.27500	2789
18.28333	2657
18.29167	2525
18.30000	2394
18.30833	2266
18.31667	2141
18.32500	2019
18.33333	1901
18.34167	1787
18.35000	1678
18.35833	1574
18.36667	1475
18.37500	1382
18.38333	1294
18.39167	1212
18.40000	1135
18.40833	1063
18.41667	996
18.42500	934
18.43333	876
18.44167	821
18.45000	772
18.45833	726
18.46667	684
18.47500	645
18.48333	610
18.49167	577
18.50000	548
18.50833	521
18.51667	497
18.52500	474
18.53333	454
18.54167	435
18.55000	418
18.55833	402
18.56667	389
18.57500	376
18.58333	365
18.59167	355
18.60000	347
18.60833	339
18.61667	333
18.62500	327
18.63333	322
18.64167	318
18.65000	315
18.65833	313
18.66667	312
18.67500	312
18.68333	312
18.69167	314
18.70000	316
18.70833	319
18.71667	322
18.72500	326
18.73333	332
18.74167	338
18.75000	344
18.75833	351
18.76667	359
18.77500	367
18.78333	375
18.79167	385
18.80000	394
18.80833	404
18.81667	413
18.82500	422
18.83333	432
18.84167	442
18.85000	451
18.85833	459
18.86667	468
18.87500	476
18.88333	484
18.89167	490
18.90000	497
18.90833	502
18.91667	506
18.92500	509
18.93333	511
18.94167	512
18.95000	512
18.95833	511
18.96667	509
18.97500	507
18.98333	503
18.99167	499
19.00000	494
19.00833	488
19.01667	481
19.02500	474
19.03333	466
19.04167	457
19.05000	449
19.05833	440
19.06667	431
19.07500	421
19.08333	412
19.09167	402
19.10000	392
19.10833	383
19.11667	374
19.12500	364
19.13333	355
19.14167	347
19.15000	338
19.15833	330
19.16667	322
19.17500	315
19.18333	308
19.19167	302
19.20000	296
19.20833	291
19.21667	286
19.22500	281
19.23333	276
19.24167	272
19.25000	268
19.25833	264
19.26667	261
19.27500	258
19.28333	256
19.29167	254
19.30000	252
19.30833	251
19.31667	249
19.32500	248
19.33333	247
19.34167	246
19.35000	246
19.35833	246
19.36667	246
19.37500	246
19.38333	246
19.39167	246
19.40000	246
19.40833	246
19.41667	247
19.42500	248
19.43333	248
19.44167	249
19.45000	250
19.45833	251
19.46667	252
19.47500	253
19.48333	254
19.49167	255
19.50000	256
19.50833	257
19.51667	259
19.52500	259
19.53333	260
19.54167	261
19.55000	262
19.55833	263
19.56667	264
19.57500	266
19.58333	267
19.59167	268
19.60000	269
19.60833	270
19.61667	270
19.62500	271
19.63333	272
19.64167	273
19.65000	273
19.65833	274
19.66667	274
19.67500	275
19.68333	276
19.69167	276
19.70000	277
19.70833	277
19.71667	278
19.72500	279
19.73333	279
19.74167	280
19.75000	280
19.75833	281
19.76667	281
19.77500	281
19.78333	281
19.79167	281
19.80000	282
19.80833	282
19.81667	283
19.82500	283
19.83333	283
19.84167	283
19.85000	283
19.85833	284
19.86667	285
19.87500	285
19.88333	286
19.89167	286
19.90000	286
19.90833	286
19.91667	287
19.92500	287
19.93333	288
19.94167	288
19.95000	289
19.95833	290
19.96667	290
19.97500	291
19.98333	292
19.99167	292
20.00000	292
20.00833	293
20.01667	293
20.02500	294
20.03333	294
20.04167	295
20.05000	296
20.05833	296
20.06667	297
20.07500	298
20.08333	298
20.09167	299
20.10000	300
20.10833	301
20.11667	301
20.12500	303
20.13333	304
20.14167	305
20.15000	306
20.15833	307
20.16667	308
20.17500	309
20.18333	311
20.19167	312
20.20000	313
20.20833	313
20.21667	314
20.22500	316
20.23333	317
20.24167	318
20.25000	319
20.25833	320
20.26667	322
20.27500	324
20.28333	325
20.29167	327
20.30000	328
20.30833	330
20.31667	332
20.32500	334
20.33333	336
20.34167	338
20.35000	339
20.35833	342
20.36667	344
20.37500	346
20.38333	349
20.39167	351
20.40000	354
20.40833	357
20.41667	360
20.42500	364
20.43333	368
20.44167	372
20.45000	376
20.45833	380
20.46667	384
20.47500	389
20.48333	394
20.49167	398
20.50000	404
20.50833	410
20.51667	416
20.52500	423
20.53333	430
20.54167	437
20.55000	445
20.55833	454
20.56667	463
20.57500	473
20.58333	484
20.59167	495
20.60000	507
20.60833	520
20.61667	535
20.62500	550
20.63333	566
20.64167	583
20.65000	601
20.65833	620
20.66667	641
20.67500	662
20.68333	685
20.69167	710
20.70000	736
20.70833	762
20.71667	791
20.72500	820
20.73333	851
20.74167	882
20.75000	916
20.75833	950
20.76667	985
20.77500	1021
20.78333	1058
20.79167	1095
20.80000	1133
20.80833	1171
20.81667	1209
20.82500	1248
20.83333	1286
20.84167	1325
20.85000	1363
20.85833	1400
20.86667	1438
20.87500	1474
20.88333	1510
20.89167	1544
20.90000	1579
20.90833	1612
20.91667	1644
20.92500	1675
20.93333	1705
20.94167	1735
20.95000	1763
20.95833	1792
20.96667	1820
20.97500	1847
20.98333	1874
20.99167	1902
21.00000	1929
21.00833	1957
21.01667	1986
21.02500	2016
21.03333	2046
21.04167	2077
21.05000	2110
21.05833	2146
21.06667	2183
21.07500	2223
21.08333	2267
21.09167	2315
21.10000	2367
21.10833	2423
21.11667	2484
21.12500	2551
21.13333	2624
21.14167	2703
21.15000	2789
21.15833	2884
21.16667	2987
21.17500	3100
21.18333	3222
21.19167	3354
21.20000	3498
21.20833	3654
21.21667	3822
21.22500	4003
21.23333	4198
21.24167	4406
21.25000	4628
21.25833	4865
21.26667	5117
21.27500	5382
21.28333	5663
21.29167	5957
21.30000	6264
21.30833	6584
21.31667	6917
21.32500	7260
21.33333	7614
21.34167	7976
21.35000	8345
21.35833	8719
21.36667	9097
21.37500	9476
21.38333	9854
21.39167	10230
21.40000	10600
21.40833	10963
21.41667	11316
21.42500	11656
21.43333	11981
21.44167	12289
21.45000	12578
21.45833	12845
21.46667	13089
21.47500	13308
21.48333	13501
21.49167	13666
21.50000	13801
21.50833	13906
21.51667	13981
21.52500	14024
21.53333	14036
21.54167	14017
21.55000	13968
21.55833	13889
21.56667	13780
21.57500	13644
21.58333	13480
21.59167	13291
21.60000	13077
21.60833	12842
21.61667	12586
21.62500	12311
21.63333	12019
21.64167	11712
21.65000	11393
21.65833	11064
21.66667	10725
21.67500	10380
21.68333	10030
21.69167	9676
21.70000	9321
21.70833	8966
21.71667	8613
21.72500	8264
21.73333	7919
21.74167	7579
21.75000	7247
21.75833	6922
21.76667	6605
21.77500	6297
21.78333	6000
21.79167	5712
21.80000	5434
21.80833	5166
21.81667	4910
21.82500	4664
21.83333	4429
21.84167	4205
21.85000	3992
21.85833	3789
21.86667	3596
21.87500	3413
21.88333	3240
21.89167	3076
21.90000	2921
21.90833	2774
21.91667	2636
21.92500	2505
21.93333	2382
21.94167	2265
21.95000	2156
21.95833	2053
21.96667	1957
21.97500	1866
21.98333	1781
21.99167	1701
22.00000	1625
22.00833	1555
22.01667	1488
22.02500	1426
22.03333	1368
22.04167	1313
22.05000	1262
22.05833	1214
22.06667	1169
22.07500	1127
22.08333	1087
22.09167	1051
22.10000	1017
22.10833	985
22.11667	954
22.12500	926
22.13333	900
22.14167	876
22.15000	854
22.15833	834
22.16667	815
22.17500	797
22.18333	781
22.19167	766
22.20000	752
22.20833	740
22.21667	730
22.22500	720
22.23333	710
22.24167	702
22.25000	694
22.25833	687
22.26667	681
22.27500	676
22.28333	671
22.29167	667
22.30000	664
22.30833	661
22.31667	658
22.32500	656
22.33333	654
22.34167	653
22.35000	652
22.35833	652
22.36667	651
22.37500	650
22.38333	650
22.39167	649
22.40000	648
22.40833	647
22.41667	646
22.42500	646
22.43333	645
22.44167	644
22.45000	643
22.45833	641
22.46667	640
22.47500	638
22.48333	635
22.49167	633
22.50000	630
22.50833	626
22.51667	623
22.52500	619
22.53333	615
22.54167	610
22.55000	605
22.55833	601
22.56667	595
22.57500	590
22.58333	585
22.59167	580
22.60000	574
22.60833	567
22.61667	561
22.62500	555
22.63333	548
22.64167	542
22.65000	536
22.65833	530
22.66667	524
22.67500	518
22.68333	512
22.69167	506
22.70000	500
22.70833	494
22.71667	488
22.72500	483
22.73333	478
22.74167	473
22.75000	468
22.75833	464
22.76667	460
22.77500	456
22.78333	453
22.79167	449
22.80000	446
22.80833	444
22.81667	442
22.82500	440
22.83333	438
22.84167	437
22.85000	436
22.85833	436
22.86667	436
22.87500	437
22.88333	437
22.89167	438
22.90000	439
22.90833	441
22.91667	442
22.92500	444
22.93333	446
22.94167	448
22.95000	450
22.95833	453
22.96667	455
22.97500	458
22.98333	461
22.99167	463
23.00000	466
23.00833	469
23.01667	472
23.02500	475
23.03333	478
23.04167	481
23.05000	484
23.05833	487
23.06667	489
23.07500	492
23.08333	494
23.09167	497
23.10000	499
23.10833	501
23.11667	503
23.12500	505
23.13333	507
23.14167	508
23.15000	510
23.15833	511
23.16667	513
23.17500	514
23.18333	515
23.19167	516
23.20000	516
23.20833	517
23.21667	517
23.22500	518
23.23333	519
23.24167	519
23.25000	519
23.25833	519
23.26667	519
23.27500	519
23.28333	519
23.29167	519
23.30000	519
23.30833	519
23.31667	518
23.32500	518
23.33333	517
23.34167	517
23.35000	516
23.35833	515
23.36667	515
23.37500	514
23.38333	513
23.39167	513
23.40000	513
23.40833	512
23.41667	511
23.42500	511
23.43333	511
23.44167	510
23.45000	510
23.45833	509
23.46667	509
23.47500	508
23.48333	508
23.49167	507
23.50000	507
23.50833	506
23.51667	505
23.52500	505
23.53333	505
23.54167	505
23.55000	505
23.55833	505
23.56667	505
23.57500	505
23.58333	504
23.59167	504
23.60000	504
23.60833	504
23.61667	504
23.62500	504
23.63333	504
23.64167	504
23.65000	503
23.65833	503
23.66667	503
23.67500	502
23.68333	502
23.69167	503
23.70000	503
23.70833	503
23.71667	503
23.72500	503
23.73333	504
23.74167	504
23.75000	504
23.75833	504
23.76667	504
23.77500	504
23.78333	504
23.79167	504
23.80000	504
23.80833	504
23.81667	504
23.82500	504
23.83333	504
23.84167	504
23.85000	504
23.85833	504
23.86667	504
23.87500	504
23.88333	505
23.89167	505
23.90000	504
23.90833	504
23.91667	505
23.92500	505
23.93333	505
23.94167	505
23.95000	505
23.95833	505
23.96667	505
23.97500	505
23.98333	505
23.99167	505
24.00000	505
24.00833	505
24.01667	505
24.02500	504
24.03333	504
24.04167	504
24.05000	504
24.05833	504
24.06667	503
24.07500	503
24.08333	503
24.09167	503
24.10000	502
24.10833	502
24.11667	501
24.12500	500
24.13333	499
24.14167	498
24.15000	498
24.15833	497
24.16667	495
24.17500	494
24.18333	492
24.19167	491
24.20000	490
24.20833	488
24.21667	486
24.22500	485
24.23333	483
24.24167	481
24.25000	479
24.25833	477
24.26667	475
24.27500	473
24.28333	471
24.29167	469
24.30000	467
24.30833	464
24.31667	462
24.32500	460
24.33333	458
24.34167	455
24.35000	453
24.35833	451
24.36667	449
24.37500	446
24.38333	444
24.39167	442
24.40000	440
24.40833	438
24.41667	436
24.42500	434
24.43333	433
24.44167	431
24.45000	429
24.45833	428
24.46667	426
24.47500	425
24.48333	423
24.49167	421
24.50000	420
24.50833	419
24.51667	417
24.52500	417
24.53333	416
24.54167	415
24.55000	415
24.55833	414
24.56667	414
24.57500	414
24.58333	414
24.59167	413
24.60000	413
24.60833	413
24.61667	413
24.62500	413
24.63333	413
24.64167	412
24.65000	412
24.65833	411
24.66667	411
24.67500	412
24.68333	412
24.69167	412
24.70000	413
24.70833	414
24.71667	414
24.72500	414
24.73333	415
24.74167	415
24.75000	415
24.75833	416
24.76667	416
24.77500	417
24.78333	417
24.79167	418
24.80000	418
24.80833	418
24.81667	418
24.82500	419
24.83333	419
24.84167	419
24.85000	420
24.85833	420
24.86667	420
24.87500	419
24.88333	419
24.89167	419
24.90000	418
24.90833	418
24.91667	418
24.92500	418
24.93333	418
24.94167	418
24.95000	419
24.95833	419
24.96667	419
24.97500	418
24.98333	418
24.99167	418
25.00000	418
25.00833	418
25.01667	417
25.02500	417
25.03333	417
25.04167	417
25.05000	417
25.05833	416
25.06667	416
25.07500	415
25.08333	415
25.09167	414
25.10000	414
25.10833	414
25.11667	414
25.12500	414
25.13333	413
25.14167	413
25.15000	412
25.15833	412
25.16667	412
25.17500	411
25.18333	411
25.19167	410
25.20000	410
25.20833	410
25.21667	410
25.22500	410
25.23333	410
25.24167	409
25.25000	409
25.25833	409
25.26667	410
25.27500	409
25.28333	409
25.29167	409
25.30000	409
25.30833	409
25.31667	409
25.32500	409
25.33333	409
25.34167	408
25.35000	408
25.35833	408
25.36667	408
25.37500	408
25.38333	407
25.39167	407
25.40000	407
25.40833	407
25.41667	407
25.42500	407
25.43333	408
25.44167	408
25.45000	408
25.45833	408
25.46667	408
25.47500	408
25.48333	408
25.49167	408
25.50000	408
25.50833	408
25.51667	408
25.52500	407
25.53333	407
25.54167	407
25.55000	408
25.55833	408
25.56667	408
25.57500	409
25.58333	409
25.59167	409
25.60000	409
25.60833	409
25.61667	409
25.62500	409
25.63333	409
25.64167	410
25.65000	410
25.65833	411
25.66667	411
25.67500	411
25.68333	412
25.69167	412
25.70000	413
25.70833	413
25.71667	413
25.72500	414
25.73333	414
25.74167	415
25.75000	415
25.75833	415
25.76667	416
25.77500	417
25.78333	417
25.79167	417
25.80000	418
25.80833	418
25.81667	418
25.82500	419
25.83333	420
25.84167	421
25.85000	421
25.85833	422
25.86667	423
25.87500	425
25.88333	426
25.89167	427
25.90000	428
25.90833	429
25.91667	431
25.92500	432
25.93333	434
25.94167	436
25.95000	438
25.95833	441
25.96667	444
25.97500	446
25.98333	449
25.99167	451
26.00000	454
26.00833	457
26.01667	460
26.02500	464
26.03333	468
26.04167	473
26.05000	477
26.05833	482
26.06667	487
26.07500	493
26.08333	498
26.09167	505
26.10000	512
26.10833	520
26.11667	527
26.12500	535
26.13333	543
26.14167	553
26.15000	562
26.15833	573
26.16667	584
26.17500	595
26.18333	608
26.19167	621
26.20000	634
26.20833	648
26.21667	663
26.22500	679
26.23333	695
26.24167	713
26.25000	731
26.25833	750
26.26667	770
26.27500	790
26.28333	811
26.29167	832
26.30000	855
26.30833	878
26.31667	901
26.32500	925
26.33333	950
26.34167	974
26.35000	999
26.35833	1024
26.36667	1050
26.37500	1075
26.38333	1100
26.39167	1125
26.40000	1151
26.40833	1175
26.41667	1199
26.42500	1223
26.43333	1245
26.44167	1267
26.45000	1288
26.45833	1308
26.46667	1326
26.47500	1343
26.48333	1359
26.49167	1373
26.50000	1385
26.50833	1396
26.51667	1406
26.52500	1414
26.53333	1420
26.54167	1424
26.55000	1426
26.55833	1426
26.56667	1424
26.57500	1421
26.58333	1415
26.59167	1408
26.60000	1399
26.60833	1389
26.61667	1376
26.62500	1363
26.63333	1348
26.64167	1331
26.65000	1313
26.65833	1294
26.66667	1274
26.67500	1253
26.68333	1231
26.69167	1209
26.70000	1186
26.70833	1162
26.71667	1138
26.72500	1113
26.73333	1089
26.74167	1064
26.75000	1039
26.75833	1014
26.76667	989
26.77500	965
26.78333	941
26.79167	917
26.80000	894
26.80833	871
26.81667	849
26.82500	827
26.83333	807
26.84167	787
26.85000	767
26.85833	748
26.86667	729
26.87500	711
26.88333	694
26.89167	677
26.90000	660
26.90833	645
26.91667	630
26.92500	616
26.93333	603
26.94167	590
26.95000	577
26.95833	565
26.96667	554
26.97500	543
26.98333	533
26.99167	523
27.00000	513
27.00833	504
27.01667	494
27.02500	486
27.03333	478
27.04167	470
27.05000	462
27.05833	455
27.06667	448
27.07500	441
27.08333	435
27.09167	429
27.10000	422
27.10833	417
27.11667	411
27.12500	405
27.13333	400
27.14167	394
27.15000	389
27.15833	384
27.16667	379
27.17500	374
27.18333	370
27.19167	365
27.20000	360
27.20833	355
27.21667	350
27.22500	346
27.23333	342
27.24167	338
27.25000	334
27.25833	331
27.26667	327
27.27500	323
27.28333	320
27.29167	316
27.30000	313
27.30833	309
27.31667	306
27.32500	303
27.33333	300
27.34167	297
27.35000	294
27.35833	292
27.36667	289
27.37500	287
27.38333	284
27.39167	281
27.40000	279
27.40833	276
27.41667	274
27.42500	271
27.43333	269
27.44167	267
27.45000	265
27.45833	262
27.46667	260
27.47500	258
27.48333	256
27.49167	254
27.50000	252
27.50833	251
27.51667	249
27.52500	247
27.53333	245
27.54167	244
27.55000	243
27.55833	242
27.56667	240
27.57500	239
27.58333	237
27.59167	236
27.60000	235
27.60833	233
27.61667	232
27.62500	230
27.63333	229
27.64167	227
27.65000	226
27.65833	225
27.66667	224
27.67500	223
27.68333	222
27.69167	222
27.70000	221
27.70833	220
27.71667	219
27.72500	218
27.73333	217
27.74167	216
27.75000	215
27.75833	214
27.76667	214
27.77500	213
27.78333	212
27.79167	212
27.80000	211
27.80833	210
27.81667	209
27.82500	208
27.83333	208
27.84167	207
27.85000	206
27.85833	205
27.86667	204
27.87500	203
27.88333	202
27.89167	202
27.90000	201
27.90833	201
27.91667	201
27.92500	201
27.93333	201
27.94167	201
27.95000	200
27.95833	199
27.96667	198
27.97500	197
27.98333	197
27.99167	197
28.00000	196

