R.Time (min)	Intensity
0.00000	-44
0.00833	-44
0.01667	-1
0.02500	-1
0.03333	-2
0.04167	-3
0.05000	-4
0.05833	-4
0.06667	-5
0.07500	-6
0.08333	-7
0.09167	-7
0.10000	-8
0.10833	-8
0.11667	-9
0.12500	-9
0.13333	-9
0.14167	-10
0.15000	-10
0.15833	-11
0.16667	-12
0.17500	-12
0.18333	-13
0.19167	-14
0.20000	-15
0.20833	-15
0.21667	-16
0.22500	-16
0.23333	-17
0.24167	-18
0.25000	-19
0.25833	-19
0.26667	-20
0.27500	-20
0.28333	-21
0.29167	-21
0.30000	-22
0.30833	-23
0.31667	-23
0.32500	-24
0.33333	-24
0.34167	-25
0.35000	-26
0.35833	-26
0.36667	-27
0.37500	-27
0.38333	-28
0.39167	-29
0.40000	-30
0.40833	-31
0.41667	-31
0.42500	-32
0.43333	-32
0.44167	-33
0.45000	-34
0.45833	-34
0.46667	-35
0.47500	-36
0.48333	-37
0.49167	-38
0.50000	-38
0.50833	-39
0.51667	-40
0.52500	-41
0.53333	-41
0.54167	-42
0.55000	-42
0.55833	-43
0.56667	-43
0.57500	-44
0.58333	-45
0.59167	-45
0.60000	-46
0.60833	-47
0.61667	-47
0.62500	-47
0.63333	-48
0.64167	-48
0.65000	-49
0.65833	-50
0.66667	-50
0.67500	-51
0.68333	-52
0.69167	-52
0.70000	-52
0.70833	-53
0.71667	-53
0.72500	-53
0.73333	-53
0.74167	-54
0.75000	-54
0.75833	-55
0.76667	-55
0.77500	-56
0.78333	-57
0.79167	-57
0.80000	-57
0.80833	-58
0.81667	-58
0.82500	-58
0.83333	-58
0.84167	-59
0.85000	-60
0.85833	-60
0.86667	-60
0.87500	-61
0.88333	-61
0.89167	-62
0.90000	-63
0.90833	-63
0.91667	-64
0.92500	-64
0.93333	-65
0.94167	-66
0.95000	-66
0.95833	-67
0.96667	-67
0.97500	-68
0.98333	-69
0.99167	-69
1.00000	-70
1.00833	-70
1.01667	-70
1.02500	-71
1.03333	-72
1.04167	-72
1.05000	-73
1.05833	-74
1.06667	-74
1.07500	-75
1.08333	-76
1.09167	-76
1.10000	-76
1.10833	-76
1.11667	-77
1.12500	-77
1.13333	-77
1.14167	-78
1.15000	-78
1.15833	-79
1.16667	-79
1.17500	-80
1.18333	-81
1.19167	-81
1.20000	-82
1.20833	-82
1.21667	-83
1.22500	-83
1.23333	-84
1.24167	-85
1.25000	-85
1.25833	-86
1.26667	-86
1.27500	-87
1.28333	-87
1.29167	-88
1.30000	-89
1.30833	-89
1.31667	-89
1.32500	-90
1.33333	-90
1.34167	-90
1.35000	-90
1.35833	-90
1.36667	-91
1.37500	-91
1.38333	-91
1.39167	-91
1.40000	-92
1.40833	-92
1.41667	-92
1.42500	-93
1.43333	-93
1.44167	-94
1.45000	-94
1.45833	-94
1.46667	-94
1.47500	-94
1.48333	-95
1.49167	-95
1.50000	-95
1.50833	-95
1.51667	-96
1.52500	-96
1.53333	-97
1.54167	-97
1.55000	-97
1.55833	-97
1.56667	-97
1.57500	-97
1.58333	-97
1.59167	-97
1.60000	-97
1.60833	-97
1.61667	-98
1.62500	-98
1.63333	-99
1.64167	-100
1.65000	-100
1.65833	-101
1.66667	-101
1.67500	-102
1.68333	-102
1.69167	-103
1.70000	-103
1.70833	-103
1.71667	-103
1.72500	-103
1.73333	-104
1.74167	-104
1.75000	-105
1.75833	-106
1.76667	-106
1.77500	-106
1.78333	-107
1.79167	-107
1.80000	-107
1.80833	-108
1.81667	-108
1.82500	-108
1.83333	-108
1.84167	-108
1.85000	-108
1.85833	-108
1.86667	-109
1.87500	-109
1.88333	-110
1.89167	-110
1.90000	-111
1.90833	-111
1.91667	-111
1.92500	-112
1.93333	-112
1.94167	-112
1.95000	-113
1.95833	-113
1.96667	-114
1.97500	-114
1.98333	-114
1.99167	-114
2.00000	-114
2.00833	-115
2.01667	-115
2.02500	-115
2.03333	-115
2.04167	-116
2.05000	-116
2.05833	-116
2.06667	-117
2.07500	-117
2.08333	-117
2.09167	-117
2.10000	-117
2.10833	-116
2.11667	-116
2.12500	-116
2.13333	-116
2.14167	-116
2.15000	-116
2.15833	-116
2.16667	-115
2.17500	-115
2.18333	-115
2.19167	-115
2.20000	-115
2.20833	-114
2.21667	-114
2.22500	-115
2.23333	-114
2.24167	-114
2.25000	-114
2.25833	-113
2.26667	-113
2.27500	-113
2.28333	-112
2.29167	-111
2.30000	-110
2.30833	-109
2.31667	-109
2.32500	-108
2.33333	-108
2.34167	-106
2.35000	-105
2.35833	-104
2.36667	-102
2.37500	-100
2.38333	-98
2.39167	-97
2.40000	-95
2.40833	-93
2.41667	-91
2.42500	-89
2.43333	-87
2.44167	-85
2.45000	-82
2.45833	-79
2.46667	-76
2.47500	-73
2.48333	-70
2.49167	-66
2.50000	-63
2.50833	-59
2.51667	-55
2.52500	-51
2.53333	-46
2.54167	-41
2.55000	-36
2.55833	-30
2.56667	-24
2.57500	-18
2.58333	-12
2.59167	-5
2.60000	2
2.60833	9
2.61667	18
2.62500	26
2.63333	35
2.64167	44
2.65000	54
2.65833	65
2.66667	76
2.67500	88
2.68333	100
2.69167	113
2.70000	126
2.70833	140
2.71667	156
2.72500	172
2.73333	188
2.74167	206
2.75000	224
2.75833	244
2.76667	264
2.77500	284
2.78333	306
2.79167	330
2.80000	355
2.80833	381
2.81667	408
2.82500	437
2.83333	468
2.84167	500
2.85000	533
2.85833	568
2.86667	605
2.87500	644
2.88333	684
2.89167	727
2.90000	771
2.90833	817
2.91667	866
2.92500	917
2.93333	970
2.94167	1025
2.95000	1083
2.95833	1144
2.96667	1207
2.97500	1272
2.98333	1339
2.99167	1409
3.00000	1482
3.00833	1556
3.01667	1633
3.02500	1712
3.03333	1793
3.04167	1877
3.05000	1962
3.05833	2049
3.06667	2139
3.07500	2229
3.08333	2322
3.09167	2415
3.10000	2510
3.10833	2605
3.11667	2701
3.12500	2797
3.13333	2893
3.14167	2989
3.15000	3085
3.15833	3179
3.16667	3273
3.17500	3364
3.18333	3455
3.19167	3543
3.20000	3629
3.20833	3713
3.21667	3793
3.22500	3870
3.23333	3943
3.24167	4012
3.25000	4076
3.25833	4136
3.26667	4192
3.27500	4243
3.28333	4288
3.29167	4328
3.30000	4362
3.30833	4390
3.31667	4412
3.32500	4429
3.33333	4439
3.34167	4443
3.35000	4441
3.35833	4433
3.36667	4419
3.37500	4400
3.38333	4374
3.39167	4342
3.40000	4305
3.40833	4263
3.41667	4215
3.42500	4162
3.43333	4104
3.44167	4042
3.45000	3975
3.45833	3904
3.46667	3829
3.47500	3751
3.48333	3670
3.49167	3586
3.50000	3499
3.50833	3411
3.51667	3320
3.52500	3228
3.53333	3134
3.54167	3039
3.55000	2943
3.55833	2847
3.56667	2751
3.57500	2655
3.58333	2559
3.59167	2464
3.60000	2369
3.60833	2276
3.61667	2183
3.62500	2092
3.63333	2003
3.64167	1915
3.65000	1830
3.65833	1746
3.66667	1665
3.67500	1586
3.68333	1509
3.69167	1434
3.70000	1362
3.70833	1291
3.71667	1224
3.72500	1159
3.73333	1096
3.74167	1036
3.75000	979
3.75833	924
3.76667	872
3.77500	822
3.78333	774
3.79167	729
3.80000	685
3.80833	643
3.81667	604
3.82500	568
3.83333	533
3.84167	500
3.85000	469
3.85833	439
3.86667	411
3.87500	384
3.88333	360
3.89167	337
3.90000	315
3.90833	295
3.91667	276
3.92500	258
3.93333	241
3.94167	225
3.95000	210
3.95833	197
3.96667	184
3.97500	172
3.98333	161
3.99167	150
4.00000	140
4.00833	131
4.01667	122
4.02500	114
4.03333	106
4.04167	99
4.05000	92
4.05833	86
4.06667	79
4.07500	73
4.08333	67
4.09167	61
4.10000	56
4.10833	50
4.11667	45
4.12500	40
4.13333	35
4.14167	30
4.15000	25
4.15833	21
4.16667	16
4.17500	12
4.18333	7
4.19167	3
4.20000	-0
4.20833	-5
4.21667	-9
4.22500	-13
4.23333	-17
4.24167	-21
4.25000	-26
4.25833	-30
4.26667	-34
4.27500	-39
4.28333	-42
4.29167	-46
4.30000	-50
4.30833	-54
4.31667	-57
4.32500	-61
4.33333	-65
4.34167	-69
4.35000	-72
4.35833	-76
4.36667	-79
4.37500	-82
4.38333	-85
4.39167	-88
4.40000	-91
4.40833	-94
4.41667	-96
4.42500	-98
4.43333	-100
4.44167	-103
4.45000	-105
4.45833	-108
4.46667	-110
4.47500	-112
4.48333	-115
4.49167	-117
4.50000	-119
4.50833	-121
4.51667	-122
4.52500	-123
4.53333	-124
4.54167	-126
4.55000	-127
4.55833	-128
4.56667	-130
4.57500	-131
4.58333	-131
4.59167	-132
4.60000	-133
4.60833	-134
4.61667	-135
4.62500	-135
4.63333	-136
4.64167	-136
4.65000	-136
4.65833	-137
4.66667	-137
4.67500	-137
4.68333	-137
4.69167	-138
4.70000	-138
4.70833	-138
4.71667	-138
4.72500	-138
4.73333	-138
4.74167	-138
4.75000	-138
4.75833	-137
4.76667	-137
4.77500	-137
4.78333	-138
4.79167	-137
4.80000	-137
4.80833	-137
4.81667	-137
4.82500	-136
4.83333	-136
4.84167	-136
4.85000	-136
4.85833	-135
4.86667	-134
4.87500	-134
4.88333	-134
4.89167	-134
4.90000	-134
4.90833	-134
4.91667	-134
4.92500	-133
4.93333	-133
4.94167	-132
4.95000	-132
4.95833	-132
4.96667	-132
4.97500	-132
4.98333	-131
4.99167	-131
5.00000	-130
5.00833	-130
5.01667	-130
5.02500	-130
5.03333	-130
5.04167	-130
5.05000	-130
5.05833	-129
5.06667	-129
5.07500	-129
5.08333	-129
5.09167	-129
5.10000	-129
5.10833	-129
5.11667	-129
5.12500	-129
5.13333	-129
5.14167	-128
5.15000	-128
5.15833	-129
5.16667	-129
5.17500	-129
5.18333	-129
5.19167	-129
5.20000	-129
5.20833	-130
5.21667	-130
5.22500	-130
5.23333	-130
5.24167	-130
5.25000	-130
5.25833	-131
5.26667	-132
5.27500	-132
5.28333	-132
5.29167	-133
5.30000	-133
5.30833	-133
5.31667	-133
5.32500	-133
5.33333	-134
5.34167	-134
5.35000	-134
5.35833	-134
5.36667	-135
5.37500	-136
5.38333	-136
5.39167	-137
5.40000	-137
5.40833	-138
5.41667	-139
5.42500	-139
5.43333	-139
5.44167	-139
5.45000	-140
5.45833	-140
5.46667	-141
5.47500	-141
5.48333	-141
5.49167	-142
5.50000	-142
5.50833	-142
5.51667	-142
5.52500	-143
5.53333	-143
5.54167	-144
5.55000	-144
5.55833	-144
5.56667	-144
5.57500	-144
5.58333	-144
5.59167	-145
5.60000	-145
5.60833	-145
5.61667	-145
5.62500	-145
5.63333	-146
5.64167	-146
5.65000	-146
5.65833	-147
5.66667	-147
5.67500	-148
5.68333	-148
5.69167	-148
5.70000	-148
5.70833	-149
5.71667	-149
5.72500	-150
5.73333	-150
5.74167	-150
5.75000	-149
5.75833	-149
5.76667	-150
5.77500	-150
5.78333	-151
5.79167	-151
5.80000	-152
5.80833	-152
5.81667	-152
5.82500	-152
5.83333	-152
5.84167	-153
5.85000	-153
5.85833	-153
5.86667	-153
5.87500	-154
5.88333	-154
5.89167	-154
5.90000	-154
5.90833	-154
5.91667	-154
5.92500	-154
5.93333	-155
5.94167	-155
5.95000	-155
5.95833	-155
5.96667	-156
5.97500	-156
5.98333	-155
5.99167	-155
6.00000	-155
6.00833	-155
6.01667	-155
6.02500	-155
6.03333	-155
6.04167	-155
6.05000	-155
6.05833	-155
6.06667	-155
6.07500	-155
6.08333	-155
6.09167	-154
6.10000	-154
6.10833	-154
6.11667	-154
6.12500	-154
6.13333	-154
6.14167	-154
6.15000	-153
6.15833	-153
6.16667	-153
6.17500	-153
6.18333	-153
6.19167	-153
6.20000	-153
6.20833	-153
6.21667	-153
6.22500	-153
6.23333	-153
6.24167	-153
6.25000	-153
6.25833	-153
6.26667	-153
6.27500	-153
6.28333	-152
6.29167	-152
6.30000	-152
6.30833	-152
6.31667	-152
6.32500	-152
6.33333	-152
6.34167	-152
6.35000	-152
6.35833	-152
6.36667	-152
6.37500	-152
6.38333	-152
6.39167	-152
6.40000	-152
6.40833	-152
6.41667	-153
6.42500	-153
6.43333	-153
6.44167	-154
6.45000	-154
6.45833	-154
6.46667	-154
6.47500	-154
6.48333	-154
6.49167	-154
6.50000	-154
6.50833	-154
6.51667	-154
6.52500	-154
6.53333	-154
6.54167	-154
6.55000	-154
6.55833	-155
6.56667	-155
6.57500	-155
6.58333	-156
6.59167	-156
6.60000	-156
6.60833	-156
6.61667	-156
6.62500	-157
6.63333	-157
6.64167	-157
6.65000	-157
6.65833	-157
6.66667	-157
6.67500	-157
6.68333	-157
6.69167	-157
6.70000	-157
6.70833	-157
6.71667	-157
6.72500	-158
6.73333	-158
6.74167	-158
6.75000	-158
6.75833	-158
6.76667	-158
6.77500	-158
6.78333	-157
6.79167	-157
6.80000	-157
6.80833	-157
6.81667	-158
6.82500	-158
6.83333	-158
6.84167	-158
6.85000	-158
6.85833	-159
6.86667	-158
6.87500	-158
6.88333	-158
6.89167	-158
6.90000	-158
6.90833	-158
6.91667	-158
6.92500	-158
6.93333	-158
6.94167	-157
6.95000	-157
6.95833	-157
6.96667	-156
6.97500	-156
6.98333	-156
6.99167	-155
7.00000	-155
7.00833	-154
7.01667	-154
7.02500	-153
7.03333	-153
7.04167	-152
7.05000	-152
7.05833	-152
7.06667	-151
7.07500	-149
7.08333	-147
7.09167	-144
7.10000	-141
7.10833	-137
7.11667	-132
7.12500	-126
7.13333	-119
7.14167	-110
7.15000	-100
7.15833	-88
7.16667	-74
7.17500	-58
7.18333	-39
7.19167	-19
7.20000	2
7.20833	26
7.21667	51
7.22500	78
7.23333	107
7.24167	136
7.25000	166
7.25833	196
7.26667	225
7.27500	251
7.28333	273
7.29167	289
7.30000	298
7.30833	297
7.31667	287
7.32500	268
7.33333	241
7.34167	213
7.35000	191
7.35833	184
7.36667	207
7.37500	276
7.38333	410
7.39167	629
7.40000	951
7.40833	1397
7.41667	1983
7.42500	2723
7.43333	3623
7.44167	4687
7.45000	5909
7.45833	7276
7.46667	8765
7.47500	10343
7.48333	11966
7.49167	13582
7.50000	15131
7.50833	16547
7.51667	17766
7.52500	18728
7.53333	19385
7.54167	19708
7.55000	19686
7.55833	19331
7.56667	18672
7.57500	17757
7.58333	16643
7.59167	15393
7.60000	14069
7.60833	12726
7.61667	11411
7.62500	10162
7.63333	9004
7.64167	7956
7.65000	7023
7.65833	6205
7.66667	5498
7.67500	4892
7.68333	4377
7.69167	3940
7.70000	3570
7.70833	3256
7.71667	2987
7.72500	2757
7.73333	2556
7.74167	2379
7.75000	2223
7.75833	2082
7.76667	1955
7.77500	1839
7.78333	1733
7.79167	1635
7.80000	1544
7.80833	1459
7.81667	1380
7.82500	1304
7.83333	1233
7.84167	1164
7.85000	1099
7.85833	1035
7.86667	975
7.87500	916
7.88333	860
7.89167	805
7.90000	753
7.90833	703
7.91667	656
7.92500	613
7.93333	573
7.94167	537
7.95000	505
7.95833	477
7.96667	453
7.97500	433
7.98333	416
7.99167	404
8.00000	394
8.00833	387
8.01667	383
8.02500	380
8.03333	377
8.04167	375
8.05000	372
8.05833	369
8.06667	364
8.07500	359
8.08333	351
8.09167	342
8.10000	332
8.10833	320
8.11667	308
8.12500	295
8.13333	282
8.14167	268
8.15000	255
8.15833	241
8.16667	228
8.17500	214
8.18333	202
8.19167	190
8.20000	178
8.20833	167
8.21667	158
8.22500	148
8.23333	140
8.24167	133
8.25000	127
8.25833	121
8.26667	116
8.27500	111
8.28333	107
8.29167	103
8.30000	99
8.30833	96
8.31667	93
8.32500	91
8.33333	89
8.34167	87
8.35000	85
8.35833	83
8.36667	81
8.37500	80
8.38333	78
8.39167	77
8.40000	76
8.40833	76
8.41667	74
8.42500	73
8.43333	71
8.44167	70
8.45000	68
8.45833	66
8.46667	65
8.47500	64
8.48333	63
8.49167	61
8.50000	59
8.50833	57
8.51667	55
8.52500	54
8.53333	52
8.54167	51
8.55000	49
8.55833	48
8.56667	47
8.57500	46
8.58333	46
8.59167	46
8.60000	46
8.60833	46
8.61667	46
8.62500	47
8.63333	48
8.64167	49
8.65000	50
8.65833	52
8.66667	55
8.67500	58
8.68333	62
8.69167	66
8.70000	71
8.70833	76
8.71667	81
8.72500	87
8.73333	93
8.74167	99
8.75000	105
8.75833	111
8.76667	116
8.77500	122
8.78333	128
8.79167	134
8.80000	141
8.80833	147
8.81667	153
8.82500	161
8.83333	168
8.84167	176
8.85000	186
8.85833	198
8.86667	212
8.87500	229
8.88333	249
8.89167	273
8.90000	303
8.90833	339
8.91667	382
8.92500	433
8.93333	492
8.94167	560
8.95000	637
8.95833	724
8.96667	820
8.97500	925
8.98333	1038
8.99167	1157
9.00000	1281
9.00833	1407
9.01667	1534
9.02500	1659
9.03333	1779
9.04167	1893
9.05000	1996
9.05833	2087
9.06667	2165
9.07500	2227
9.08333	2271
9.09167	2299
9.10000	2309
9.10833	2301
9.11667	2277
9.12500	2237
9.13333	2183
9.14167	2116
9.15000	2038
9.15833	1952
9.16667	1859
9.17500	1761
9.18333	1660
9.19167	1558
9.20000	1457
9.20833	1359
9.21667	1263
9.22500	1171
9.23333	1085
9.24167	1003
9.25000	927
9.25833	857
9.26667	793
9.27500	735
9.28333	683
9.29167	636
9.30000	595
9.30833	558
9.31667	525
9.32500	497
9.33333	473
9.34167	453
9.35000	436
9.35833	424
9.36667	414
9.37500	409
9.38333	407
9.39167	408
9.40000	414
9.40833	425
9.41667	441
9.42500	464
9.43333	494
9.44167	534
9.45000	585
9.45833	650
9.46667	732
9.47500	833
9.48333	958
9.49167	1111
9.50000	1297
9.50833	1522
9.51667	1790
9.52500	2106
9.53333	2477
9.54167	2906
9.55000	3397
9.55833	3953
9.56667	4575
9.57500	5265
9.58333	6019
9.59167	6834
9.60000	7703
9.60833	8619
9.61667	9572
9.62500	10549
9.63333	11537
9.64167	12520
9.65000	13486
9.65833	14416
9.66667	15296
9.67500	16111
9.68333	16850
9.69167	17500
9.70000	18053
9.70833	18503
9.71667	18848
9.72500	19085
9.73333	19218
9.74167	19252
9.75000	19194
9.75833	19054
9.76667	18842
9.77500	18571
9.78333	18253
9.79167	17903
9.80000	17532
9.80833	17154
9.81667	16780
9.82500	16420
9.83333	16085
9.84167	15782
9.85000	15519
9.85833	15300
9.86667	15129
9.87500	15010
9.88333	14944
9.89167	14932
9.90000	14973
9.90833	15067
9.91667	15212
9.92500	15405
9.93333	15645
9.94167	15929
9.95000	16253
9.95833	16614
9.96667	17009
9.97500	17435
9.98333	17888
9.99167	18364
10.00000	18862
10.00833	19376
10.01667	19904
10.02500	20441
10.03333	20981
10.04167	21518
10.05000	22040
10.05833	22532
10.06667	22971
10.07500	23328
10.08333	23568
10.09167	23652
10.10000	23541
10.10833	23204
10.11667	22621
10.12500	21787
10.13333	20718
10.14167	19447
10.15000	18019
10.15833	16488
10.16667	14910
10.17500	13341
10.18333	11824
10.19167	10396
10.20000	9081
10.20833	7893
10.21667	6838
10.22500	5913
10.23333	5112
10.24167	4426
10.25000	3841
10.25833	3345
10.26667	2927
10.27500	2575
10.28333	2278
10.29167	2028
10.30000	1817
10.30833	1638
10.31667	1485
10.32500	1354
10.33333	1240
10.34167	1141
10.35000	1054
10.35833	976
10.36667	906
10.37500	844
10.38333	788
10.39167	736
10.40000	689
10.40833	645
10.41667	605
10.42500	568
10.43333	535
10.44167	504
10.45000	476
10.45833	451
10.46667	428
10.47500	408
10.48333	391
10.49167	377
10.50000	366
10.50833	357
10.51667	351
10.52500	348
10.53333	348
10.54167	350
10.55000	353
10.55833	359
10.56667	367
10.57500	376
10.58333	385
10.59167	395
10.60000	405
10.60833	414
10.61667	423
10.62500	430
10.63333	437
10.64167	441
10.65000	442
10.65833	442
10.66667	439
10.67500	433
10.68333	425
10.69167	415
10.70000	402
10.70833	388
10.71667	372
10.72500	355
10.73333	338
10.74167	320
10.75000	301
10.75833	284
10.76667	267
10.77500	250
10.78333	234
10.79167	219
10.80000	205
10.80833	193
10.81667	182
10.82500	172
10.83333	164
10.84167	156
10.85000	150
10.85833	145
10.86667	141
10.87500	137
10.88333	134
10.89167	131
10.90000	129
10.90833	127
10.91667	125
10.92500	122
10.93333	120
10.94167	117
10.95000	114
10.95833	110
10.96667	106
10.97500	102
10.98333	98
10.99167	93
11.00000	88
11.00833	84
11.01667	79
11.02500	74
11.03333	69
11.04167	64
11.05000	60
11.05833	57
11.06667	54
11.07500	51
11.08333	49
11.09167	48
11.10000	47
11.10833	48
11.11667	49
11.12500	51
11.13333	53
11.14167	56
11.15000	60
11.15833	65
11.16667	70
11.17500	76
11.18333	82
11.19167	90
11.20000	97
11.20833	105
11.21667	113
11.22500	121
11.23333	128
11.24167	134
11.25000	141
11.25833	147
11.26667	152
11.27500	157
11.28333	161
11.29167	164
11.30000	166
11.30833	167
11.31667	168
11.32500	167
11.33333	166
11.34167	164
11.35000	162
11.35833	159
11.36667	156
11.37500	152
11.38333	148
11.39167	144
11.40000	140
11.40833	136
11.41667	132
11.42500	128
11.43333	125
11.44167	122
11.45000	119
11.45833	116
11.46667	115
11.47500	113
11.48333	112
11.49167	111
11.50000	111
11.50833	111
11.51667	112
11.52500	112
11.53333	113
11.54167	114
11.55000	115
11.55833	116
11.56667	117
11.57500	118
11.58333	118
11.59167	119
11.60000	119
11.60833	119
11.61667	119
11.62500	119
11.63333	119
11.64167	119
11.65000	118
11.65833	119
11.66667	119
11.67500	120
11.68333	121
11.69167	123
11.70000	124
11.70833	126
11.71667	128
11.72500	131
11.73333	133
11.74167	136
11.75000	139
11.75833	143
11.76667	146
11.77500	148
11.78333	150
11.79167	151
11.80000	151
11.80833	151
11.81667	150
11.82500	148
11.83333	146
11.84167	142
11.85000	138
11.85833	133
11.86667	127
11.87500	120
11.88333	113
11.89167	106
11.90000	99
11.90833	91
11.91667	83
11.92500	75
11.93333	67
11.94167	59
11.95000	51
11.95833	44
11.96667	37
11.97500	31
11.98333	25
11.99167	19
12.00000	15
12.00833	11
12.01667	7
12.02500	4
12.03333	1
12.04167	-2
12.05000	-4
12.05833	-6
12.06667	-8
12.07500	-9
12.08333	-10
12.09167	-10
12.10000	-11
12.10833	-11
12.11667	-11
12.12500	-12
12.13333	-12
12.14167	-11
12.15000	-11
12.15833	-10
12.16667	-10
12.17500	-10
12.18333	-9
12.19167	-9
12.20000	-9
12.20833	-8
12.21667	-8
12.22500	-7
12.23333	-7
12.24167	-7
12.25000	-7
12.25833	-7
12.26667	-7
12.27500	-8
12.28333	-8
12.29167	-9
12.30000	-10
12.30833	-12
12.31667	-13
12.32500	-15
12.33333	-16
12.34167	-18
12.35000	-20
12.35833	-22
12.36667	-24
12.37500	-26
12.38333	-29
12.39167	-32
12.40000	-34
12.40833	-37
12.41667	-39
12.42500	-42
12.43333	-44
12.44167	-46
12.45000	-48
12.45833	-50
12.46667	-51
12.47500	-52
12.48333	-53
12.49167	-55
12.50000	-56
12.50833	-56
12.51667	-57
12.52500	-57
12.53333	-58
12.54167	-58
12.55000	-58
12.55833	-58
12.56667	-58
12.57500	-58
12.58333	-58
12.59167	-57
12.60000	-56
12.60833	-55
12.61667	-54
12.62500	-52
12.63333	-51
12.64167	-49
12.65000	-48
12.65833	-46
12.66667	-45
12.67500	-44
12.68333	-42
12.69167	-41
12.70000	-40
12.70833	-39
12.71667	-38
12.72500	-37
12.73333	-36
12.74167	-35
12.75000	-34
12.75833	-34
12.76667	-33
12.77500	-32
12.78333	-32
12.79167	-31
12.80000	-31
12.80833	-30
12.81667	-30
12.82500	-29
12.83333	-29
12.84167	-29
12.85000	-29
12.85833	-29
12.86667	-29
12.87500	-29
12.88333	-29
12.89167	-29
12.90000	-28
12.90833	-27
12.91667	-26
12.92500	-25
12.93333	-24
12.94167	-23
12.95000	-22
12.95833	-21
12.96667	-20
12.97500	-18
12.98333	-17
12.99167	-15
13.00000	-13
13.00833	-11
13.01667	-9
13.02500	-8
13.03333	-6
13.04167	-5
13.05000	-4
13.05833	-3
13.06667	-1
13.07500	-1
13.08333	0
13.09167	0
13.10000	1
13.10833	1
13.11667	1
13.12500	2
13.13333	2
13.14167	2
13.15000	1
13.15833	1
13.16667	0
13.17500	-0
13.18333	-1
13.19167	-2
13.20000	-3
13.20833	-4
13.21667	-5
13.22500	-5
13.23333	-6
13.24167	-7
13.25000	-8
13.25833	-8
13.26667	-8
13.27500	-9
13.28333	-9
13.29167	-9
13.30000	-10
13.30833	-10
13.31667	-10
13.32500	-10
13.33333	-10
13.34167	-9
13.35000	-8
13.35833	-8
13.36667	-7
13.37500	-6
13.38333	-5
13.39167	-5
13.40000	-4
13.40833	-3
13.41667	-2
13.42500	-1
13.43333	-0
13.44167	1
13.45000	3
13.45833	4
13.46667	6
13.47500	7
13.48333	9
13.49167	11
13.50000	13
13.50833	16
13.51667	19
13.52500	22
13.53333	26
13.54167	30
13.55000	34
13.55833	39
13.56667	44
13.57500	50
13.58333	57
13.59167	65
13.60000	74
13.60833	82
13.61667	92
13.62500	102
13.63333	113
13.64167	125
13.65000	137
13.65833	150
13.66667	164
13.67500	177
13.68333	191
13.69167	205
13.70000	219
13.70833	232
13.71667	245
13.72500	258
13.73333	269
13.74167	280
13.75000	289
13.75833	298
13.76667	306
13.77500	312
13.78333	318
13.79167	323
13.80000	327
13.80833	330
13.81667	333
13.82500	336
13.83333	339
13.84167	342
13.85000	344
13.85833	346
13.86667	348
13.87500	351
13.88333	354
13.89167	358
13.90000	361
13.90833	365
13.91667	369
13.92500	373
13.93333	377
13.94167	380
13.95000	383
13.95833	385
13.96667	387
13.97500	388
13.98333	388
13.99167	387
14.00000	385
14.00833	381
14.01667	377
14.02500	372
14.03333	365
14.04167	358
14.05000	351
14.05833	343
14.06667	335
14.07500	326
14.08333	317
14.09167	307
14.10000	298
14.10833	288
14.11667	279
14.12500	271
14.13333	262
14.14167	254
14.15000	246
14.15833	239
14.16667	233
14.17500	227
14.18333	222
14.19167	217
14.20000	213
14.20833	209
14.21667	205
14.22500	202
14.23333	199
14.24167	196
14.25000	194
14.25833	192
14.26667	191
14.27500	190
14.28333	190
14.29167	189
14.30000	189
14.30833	189
14.31667	189
14.32500	190
14.33333	191
14.34167	191
14.35000	192
14.35833	193
14.36667	193
14.37500	195
14.38333	196
14.39167	197
14.40000	198
14.40833	200
14.41667	201
14.42500	203
14.43333	204
14.44167	206
14.45000	207
14.45833	208
14.46667	209
14.47500	210
14.48333	211
14.49167	212
14.50000	212
14.50833	213
14.51667	213
14.52500	214
14.53333	214
14.54167	215
14.55000	215
14.55833	216
14.56667	216
14.57500	216
14.58333	216
14.59167	215
14.60000	215
14.60833	215
14.61667	214
14.62500	213
14.63333	213
14.64167	212
14.65000	211
14.65833	210
14.66667	209
14.67500	208
14.68333	207
14.69167	206
14.70000	205
14.70833	205
14.71667	204
14.72500	203
14.73333	202
14.74167	201
14.75000	200
14.75833	199
14.76667	199
14.77500	198
14.78333	197
14.79167	196
14.80000	195
14.80833	195
14.81667	194
14.82500	194
14.83333	193
14.84167	193
14.85000	193
14.85833	193
14.86667	192
14.87500	192
14.88333	191
14.89167	191
14.90000	191
14.90833	192
14.91667	192
14.92500	192
14.93333	193
14.94167	193
14.95000	194
14.95833	195
14.96667	196
14.97500	197
14.98333	199
14.99167	201
15.00000	204
15.00833	206
15.01667	210
15.02500	214
15.03333	218
15.04167	223
15.05000	230
15.05833	237
15.06667	246
15.07500	255
15.08333	267
15.09167	280
15.10000	294
15.10833	310
15.11667	328
15.12500	347
15.13333	368
15.14167	390
15.15000	413
15.15833	438
15.16667	465
15.17500	493
15.18333	521
15.19167	550
15.20000	579
15.20833	608
15.21667	635
15.22500	662
15.23333	687
15.24167	711
15.25000	733
15.25833	752
15.26667	768
15.27500	781
15.28333	791
15.29167	797
15.30000	800
15.30833	799
15.31667	795
15.32500	787
15.33333	776
15.34167	761
15.35000	744
15.35833	723
15.36667	700
15.37500	675
15.38333	649
15.39167	621
15.40000	592
15.40833	563
15.41667	533
15.42500	504
15.43333	475
15.44167	446
15.45000	418
15.45833	391
15.46667	364
15.47500	339
15.48333	315
15.49167	292
15.50000	270
15.50833	250
15.51667	232
15.52500	214
15.53333	198
15.54167	182
15.55000	168
15.55833	155
15.56667	143
15.57500	132
15.58333	122
15.59167	113
15.60000	105
15.60833	97
15.61667	90
15.62500	84
15.63333	79
15.64167	74
15.65000	71
15.65833	68
15.66667	65
15.67500	64
15.68333	63
15.69167	62
15.70000	62
15.70833	63
15.71667	64
15.72500	66
15.73333	68
15.74167	72
15.75000	75
15.75833	80
15.76667	85
15.77500	91
15.78333	98
15.79167	106
15.80000	115
15.80833	126
15.81667	137
15.82500	150
15.83333	164
15.84167	181
15.85000	200
15.85833	220
15.86667	244
15.87500	270
15.88333	299
15.89167	331
15.90000	368
15.90833	409
15.91667	456
15.92500	508
15.93333	565
15.94167	629
15.95000	701
15.95833	779
15.96667	864
15.97500	958
15.98333	1059
15.99167	1169
16.00000	1286
16.00833	1411
16.01667	1543
16.02500	1682
16.03333	1826
16.04167	1974
16.05000	2126
16.05833	2279
16.06667	2433
16.07500	2586
16.08333	2735
16.09167	2879
16.10000	3017
16.10833	3145
16.11667	3263
16.12500	3369
16.13333	3461
16.14167	3538
16.15000	3599
16.15833	3644
16.16667	3671
16.17500	3680
16.18333	3673
16.19167	3648
16.20000	3607
16.20833	3550
16.21667	3480
16.22500	3396
16.23333	3301
16.24167	3195
16.25000	3081
16.25833	2961
16.26667	2835
16.27500	2706
16.28333	2574
16.29167	2442
16.30000	2312
16.30833	2183
16.31667	2057
16.32500	1935
16.33333	1818
16.34167	1707
16.35000	1601
16.35833	1502
16.36667	1410
16.37500	1325
16.38333	1246
16.39167	1174
16.40000	1108
16.40833	1049
16.41667	997
16.42500	950
16.43333	910
16.44167	875
16.45000	846
16.45833	822
16.46667	803
16.47500	789
16.48333	779
16.49167	773
16.50000	771
16.50833	773
16.51667	779
16.52500	787
16.53333	798
16.54167	811
16.55000	826
16.55833	842
16.56667	860
16.57500	879
16.58333	898
16.59167	917
16.60000	936
16.60833	953
16.61667	969
16.62500	983
16.63333	995
16.64167	1005
16.65000	1012
16.65833	1016
16.66667	1016
16.67500	1014
16.68333	1008
16.69167	999
16.70000	987
16.70833	971
16.71667	952
16.72500	931
16.73333	906
16.74167	879
16.75000	850
16.75833	819
16.76667	787
16.77500	753
16.78333	719
16.79167	684
16.80000	648
16.80833	613
16.81667	577
16.82500	543
16.83333	509
16.84167	476
16.85000	444
16.85833	414
16.86667	384
16.87500	356
16.88333	330
16.89167	305
16.90000	281
16.90833	259
16.91667	238
16.92500	219
16.93333	201
16.94167	185
16.95000	169
16.95833	155
16.96667	142
16.97500	130
16.98333	119
16.99167	109
17.00000	99
17.00833	90
17.01667	82
17.02500	74
17.03333	66
17.04167	60
17.05000	53
17.05833	48
17.06667	42
17.07500	37
17.08333	33
17.09167	29
17.10000	25
17.10833	22
17.11667	18
17.12500	15
17.13333	12
17.14167	9
17.15000	7
17.15833	4
17.16667	2
17.17500	-0
17.18333	-2
17.19167	-4
17.20000	-6
17.20833	-8
17.21667	-10
17.22500	-11
17.23333	-13
17.24167	-14
17.25000	-15
17.25833	-16
17.26667	-17
17.27500	-18
17.28333	-19
17.29167	-20
17.30000	-21
17.30833	-21
17.31667	-22
17.32500	-22
17.33333	-22
17.34167	-22
17.35000	-22
17.35833	-22
17.36667	-22
17.37500	-22
17.38333	-23
17.39167	-23
17.40000	-23
17.40833	-23
17.41667	-23
17.42500	-23
17.43333	-23
17.44167	-22
17.45000	-22
17.45833	-21
17.46667	-21
17.47500	-21
17.48333	-20
17.49167	-19
17.50000	-18
17.50833	-17
17.51667	-15
17.52500	-14
17.53333	-12
17.54167	-11
17.55000	-9
17.55833	-8
17.56667	-6
17.57500	-3
17.58333	-1
17.59167	2
17.60000	6
17.60833	10
17.61667	14
17.62500	18
17.63333	23
17.64167	28
17.65000	34
17.65833	41
17.66667	48
17.67500	56
17.68333	64
17.69167	74
17.70000	84
17.70833	94
17.71667	106
17.72500	120
17.73333	134
17.74167	151
17.75000	169
17.75833	188
17.76667	209
17.77500	233
17.78333	259
17.79167	288
17.80000	319
17.80833	353
17.81667	391
17.82500	433
17.83333	479
17.84167	531
17.85000	587
17.85833	649
17.86667	718
17.87500	793
17.88333	876
17.89167	966
17.90000	1065
17.90833	1172
17.91667	1289
17.92500	1416
17.93333	1553
17.94167	1700
17.95000	1856
17.95833	2023
17.96667	2200
17.97500	2385
17.98333	2580
17.99167	2783
18.00000	2992
18.00833	3207
18.01667	3427
18.02500	3649
18.03333	3872
18.04167	4094
18.05000	4312
18.05833	4525
18.06667	4731
18.07500	4927
18.08333	5112
18.09167	5282
18.10000	5436
18.10833	5571
18.11667	5687
18.12500	5783
18.13333	5857
18.14167	5909
18.15000	5938
18.15833	5944
18.16667	5927
18.17500	5887
18.18333	5825
18.19167	5743
18.20000	5641
18.20833	5520
18.21667	5384
18.22500	5233
18.23333	5069
18.24167	4894
18.25000	4710
18.25833	4519
18.26667	4323
18.27500	4124
18.28333	3923
18.29167	3721
18.30000	3521
18.30833	3324
18.31667	3131
18.32500	2943
18.33333	2761
18.34167	2585
18.35000	2416
18.35833	2255
18.36667	2102
18.37500	1957
18.38333	1820
18.39167	1691
18.40000	1570
18.40833	1458
18.41667	1352
18.42500	1254
18.43333	1163
18.44167	1079
18.45000	1001
18.45833	929
18.46667	862
18.47500	801
18.48333	744
18.49167	692
18.50000	644
18.50833	600
18.51667	559
18.52500	522
18.53333	488
18.54167	457
18.55000	429
18.55833	403
18.56667	380
18.57500	358
18.58333	339
18.59167	322
18.60000	306
18.60833	292
18.61667	279
18.62500	268
18.63333	258
18.64167	249
18.65000	241
18.65833	235
18.66667	230
18.67500	226
18.68333	223
18.69167	222
18.70000	222
18.70833	222
18.71667	224
18.72500	227
18.73333	231
18.74167	235
18.75000	240
18.75833	246
18.76667	252
18.77500	260
18.78333	268
18.79167	276
18.80000	285
18.80833	294
18.81667	304
18.82500	313
18.83333	323
18.84167	332
18.85000	341
18.85833	350
18.86667	359
18.87500	367
18.88333	374
18.89167	381
18.90000	387
18.90833	392
18.91667	396
18.92500	400
18.93333	403
18.94167	405
18.95000	405
18.95833	405
18.96667	403
18.97500	401
18.98333	397
18.99167	392
19.00000	387
19.00833	381
19.01667	374
19.02500	366
19.03333	358
19.04167	348
19.05000	339
19.05833	329
19.06667	319
19.07500	309
19.08333	298
19.09167	288
19.10000	278
19.10833	268
19.11667	258
19.12500	249
19.13333	239
19.14167	229
19.15000	220
19.15833	211
19.16667	203
19.17500	195
19.18333	187
19.19167	180
19.20000	174
19.20833	167
19.21667	161
19.22500	156
19.23333	151
19.24167	146
19.25000	142
19.25833	138
19.26667	134
19.27500	132
19.28333	129
19.29167	127
19.30000	125
19.30833	123
19.31667	122
19.32500	120
19.33333	119
19.34167	118
19.35000	117
19.35833	117
19.36667	117
19.37500	116
19.38333	116
19.39167	116
19.40000	117
19.40833	117
19.41667	118
19.42500	118
19.43333	119
19.44167	119
19.45000	120
19.45833	121
19.46667	121
19.47500	122
19.48333	122
19.49167	123
19.50000	123
19.50833	124
19.51667	125
19.52500	126
19.53333	126
19.54167	127
19.55000	128
19.55833	129
19.56667	129
19.57500	129
19.58333	130
19.59167	130
19.60000	131
19.60833	132
19.61667	132
19.62500	133
19.63333	133
19.64167	133
19.65000	133
19.65833	133
19.66667	133
19.67500	133
19.68333	133
19.69167	134
19.70000	134
19.70833	134
19.71667	134
19.72500	134
19.73333	135
19.74167	135
19.75000	135
19.75833	135
19.76667	135
19.77500	135
19.78333	135
19.79167	135
19.80000	135
19.80833	135
19.81667	135
19.82500	136
19.83333	136
19.84167	137
19.85000	137
19.85833	137
19.86667	138
19.87500	138
19.88333	138
19.89167	137
19.90000	137
19.90833	137
19.91667	137
19.92500	137
19.93333	137
19.94167	137
19.95000	137
19.95833	137
19.96667	137
19.97500	137
19.98333	137
19.99167	138
20.00000	138
20.00833	138
20.01667	138
20.02500	139
20.03333	139
20.04167	139
20.05000	140
20.05833	140
20.06667	141
20.07500	141
20.08333	142
20.09167	142
20.10000	142
20.10833	142
20.11667	143
20.12500	143
20.13333	144
20.14167	144
20.15000	145
20.15833	145
20.16667	146
20.17500	147
20.18333	147
20.19167	148
20.20000	149
20.20833	150
20.21667	150
20.22500	151
20.23333	152
20.24167	153
20.25000	154
20.25833	155
20.26667	156
20.27500	158
20.28333	159
20.29167	160
20.30000	162
20.30833	163
20.31667	165
20.32500	167
20.33333	168
20.34167	170
20.35000	172
20.35833	174
20.36667	176
20.37500	178
20.38333	181
20.39167	183
20.40000	186
20.40833	189
20.41667	192
20.42500	195
20.43333	199
20.44167	202
20.45000	206
20.45833	210
20.46667	214
20.47500	218
20.48333	222
20.49167	227
20.50000	232
20.50833	238
20.51667	244
20.52500	251
20.53333	258
20.54167	266
20.55000	274
20.55833	283
20.56667	292
20.57500	302
20.58333	312
20.59167	323
20.60000	335
20.60833	349
20.61667	363
20.62500	377
20.63333	393
20.64167	410
20.65000	429
20.65833	448
20.66667	468
20.67500	490
20.68333	513
20.69167	538
20.70000	564
20.70833	591
20.71667	620
20.72500	650
20.73333	681
20.74167	713
20.75000	746
20.75833	780
20.76667	816
20.77500	852
20.78333	889
20.79167	926
20.80000	965
20.80833	1004
20.81667	1043
20.82500	1083
20.83333	1122
20.84167	1162
20.85000	1201
20.85833	1240
20.86667	1277
20.87500	1314
20.88333	1350
20.89167	1386
20.90000	1421
20.90833	1456
20.91667	1489
20.92500	1521
20.93333	1553
20.94167	1583
20.95000	1612
20.95833	1642
20.96667	1670
20.97500	1698
20.98333	1726
20.99167	1754
21.00000	1782
21.00833	1810
21.01667	1839
21.02500	1868
21.03333	1899
21.04167	1930
21.05000	1964
21.05833	1999
21.06667	2037
21.07500	2077
21.08333	2121
21.09167	2168
21.10000	2219
21.10833	2275
21.11667	2335
21.12500	2401
21.13333	2473
21.14167	2552
21.15000	2637
21.15833	2730
21.16667	2832
21.17500	2943
21.18333	3065
21.19167	3196
21.20000	3339
21.20833	3493
21.21667	3659
21.22500	3838
21.23333	4031
21.24167	4238
21.25000	4459
21.25833	4694
21.26667	4944
21.27500	5208
21.28333	5487
21.29167	5780
21.30000	6087
21.30833	6407
21.31667	6740
21.32500	7084
21.33333	7439
21.34167	7803
21.35000	8175
21.35833	8552
21.36667	8934
21.37500	9317
21.38333	9701
21.39167	10082
21.40000	10459
21.40833	10828
21.41667	11188
21.42500	11536
21.43333	11870
21.44167	12188
21.45000	12487
21.45833	12765
21.46667	13020
21.47500	13250
21.48333	13454
21.49167	13630
21.50000	13777
21.50833	13894
21.51667	13979
21.52500	14034
21.53333	14057
21.54167	14048
21.55000	14009
21.55833	13938
21.56667	13838
21.57500	13709
21.58333	13552
21.59167	13368
21.60000	13159
21.60833	12927
21.61667	12674
21.62500	12401
21.63333	12111
21.64167	11805
21.65000	11485
21.65833	11154
21.66667	10813
21.67500	10464
21.68333	10109
21.69167	9751
21.70000	9391
21.70833	9030
21.71667	8671
21.72500	8314
21.73333	7962
21.74167	7615
21.75000	7274
21.75833	6941
21.76667	6616
21.77500	6300
21.78333	5994
21.79167	5697
21.80000	5411
21.80833	5136
21.81667	4872
21.82500	4619
21.83333	4376
21.84167	4144
21.85000	3923
21.85833	3714
21.86667	3514
21.87500	3325
21.88333	3144
21.89167	2974
21.90000	2813
21.90833	2661
21.91667	2517
21.92500	2382
21.93333	2254
21.94167	2134
21.95000	2021
21.95833	1914
21.96667	1814
21.97500	1720
21.98333	1631
21.99167	1548
22.00000	1470
22.00833	1397
22.01667	1328
22.02500	1263
22.03333	1203
22.04167	1146
22.05000	1093
22.05833	1043
22.06667	997
22.07500	954
22.08333	913
22.09167	876
22.10000	841
22.10833	808
22.11667	778
22.12500	749
22.13333	723
22.14167	698
22.15000	676
22.15833	656
22.16667	637
22.17500	620
22.18333	605
22.19167	590
22.20000	577
22.20833	564
22.21667	553
22.22500	543
22.23333	533
22.24167	525
22.25000	518
22.25833	512
22.26667	506
22.27500	501
22.28333	497
22.29167	493
22.30000	490
22.30833	487
22.31667	485
22.32500	483
22.33333	481
22.34167	479
22.35000	478
22.35833	477
22.36667	476
22.37500	475
22.38333	474
22.39167	473
22.40000	472
22.40833	471
22.41667	469
22.42500	467
22.43333	465
22.44167	463
22.45000	461
22.45833	459
22.46667	457
22.47500	454
22.48333	451
22.49167	447
22.50000	442
22.50833	438
22.51667	433
22.52500	429
22.53333	424
22.54167	418
22.55000	413
22.55833	407
22.56667	401
22.57500	395
22.58333	388
22.59167	381
22.60000	374
22.60833	367
22.61667	360
22.62500	353
22.63333	346
22.64167	339
22.65000	333
22.65833	326
22.66667	319
22.67500	312
22.68333	306
22.69167	299
22.70000	293
22.70833	287
22.71667	280
22.72500	274
22.73333	268
22.74167	263
22.75000	257
22.75833	253
22.76667	248
22.77500	244
22.78333	239
22.79167	236
22.80000	232
22.80833	230
22.81667	228
22.82500	226
22.83333	225
22.84167	223
22.85000	222
22.85833	221
22.86667	220
22.87500	220
22.88333	220
22.89167	221
22.90000	221
22.90833	223
22.91667	224
22.92500	226
22.93333	228
22.94167	230
22.95000	232
22.95833	235
22.96667	237
22.97500	240
22.98333	243
22.99167	245
23.00000	248
23.00833	250
23.01667	253
23.02500	256
23.03333	258
23.04167	261
23.05000	264
23.05833	266
23.06667	269
23.07500	271
23.08333	274
23.09167	277
23.10000	279
23.10833	282
23.11667	284
23.12500	286
23.13333	288
23.14167	290
23.15000	291
23.15833	292
23.16667	293
23.17500	294
23.18333	295
23.19167	296
23.20000	297
23.20833	297
23.21667	298
23.22500	298
23.23333	298
23.24167	298
23.25000	298
23.25833	298
23.26667	298
23.27500	298
23.28333	297
23.29167	297
23.30000	296
23.30833	296
23.31667	296
23.32500	296
23.33333	295
23.34167	294
23.35000	294
23.35833	293
23.36667	292
23.37500	292
23.38333	291
23.39167	290
23.40000	289
23.40833	289
23.41667	288
23.42500	287
23.43333	286
23.44167	286
23.45000	285
23.45833	284
23.46667	284
23.47500	283
23.48333	283
23.49167	282
23.50000	282
23.50833	281
23.51667	281
23.52500	280
23.53333	279
23.54167	279
23.55000	278
23.55833	278
23.56667	278
23.57500	277
23.58333	277
23.59167	277
23.60000	276
23.60833	276
23.61667	275
23.62500	275
23.63333	275
23.64167	275
23.65000	275
23.65833	275
23.66667	275
23.67500	275
23.68333	275
23.69167	275
23.70000	275
23.70833	275
23.71667	275
23.72500	274
23.73333	274
23.74167	274
23.75000	274
23.75833	274
23.76667	274
23.77500	275
23.78333	275
23.79167	275
23.80000	275
23.80833	275
23.81667	275
23.82500	275
23.83333	275
23.84167	276
23.85000	276
23.85833	276
23.86667	276
23.87500	276
23.88333	276
23.89167	276
23.90000	276
23.90833	276
23.91667	276
23.92500	276
23.93333	276
23.94167	276
23.95000	275
23.95833	275
23.96667	275
23.97500	275
23.98333	275
23.99167	275
24.00000	275
24.00833	275
24.01667	275
24.02500	275
24.03333	275
24.04167	275
24.05000	275
24.05833	275
24.06667	275
24.07500	274
24.08333	274
24.09167	273
24.10000	272
24.10833	272
24.11667	272
24.12500	271
24.13333	270
24.14167	270
24.15000	269
24.15833	268
24.16667	266
24.17500	265
24.18333	263
24.19167	262
24.20000	261
24.20833	259
24.21667	258
24.22500	256
24.23333	255
24.24167	254
24.25000	252
24.25833	250
24.26667	249
24.27500	247
24.28333	245
24.29167	243
24.30000	241
24.30833	239
24.31667	237
24.32500	235
24.33333	233
24.34167	231
24.35000	229
24.35833	228
24.36667	225
24.37500	224
24.38333	222
24.39167	220
24.40000	218
24.40833	216
24.41667	214
24.42500	213
24.43333	211
24.44167	210
24.45000	208
24.45833	207
24.46667	206
24.47500	204
24.48333	202
24.49167	201
24.50000	200
24.50833	199
24.51667	198
24.52500	197
24.53333	196
24.54167	196
24.55000	196
24.55833	195
24.56667	195
24.57500	194
24.58333	194
24.59167	194
24.60000	193
24.60833	193
24.61667	193
24.62500	193
24.63333	192
24.64167	192
24.65000	192
24.65833	192
24.66667	192
24.67500	192
24.68333	192
24.69167	192
24.70000	192
24.70833	192
24.71667	192
24.72500	193
24.73333	193
24.74167	192
24.75000	192
24.75833	192
24.76667	192
24.77500	192
24.78333	192
24.79167	192
24.80000	192
24.80833	192
24.81667	192
24.82500	192
24.83333	192
24.84167	193
24.85000	193
24.85833	193
24.86667	193
24.87500	192
24.88333	192
24.89167	192
24.90000	192
24.90833	192
24.91667	192
24.92500	193
24.93333	193
24.94167	193
24.95000	193
24.95833	193
24.96667	193
24.97500	193
24.98333	192
24.99167	192
25.00000	191
25.00833	191
25.01667	190
25.02500	190
25.03333	190
25.04167	190
25.05000	190
25.05833	189
25.06667	189
25.07500	189
25.08333	189
25.09167	189
25.10000	188
25.10833	188
25.11667	187
25.12500	187
25.13333	186
25.14167	186
25.15000	186
25.15833	185
25.16667	185
25.17500	185
25.18333	184
25.19167	184
25.20000	184
25.20833	184
25.21667	184
25.22500	183
25.23333	183
25.24167	183
25.25000	182
25.25833	182
25.26667	182
25.27500	181
25.28333	181
25.29167	181
25.30000	181
25.30833	180
25.31667	180
25.32500	180
25.33333	180
25.34167	180
25.35000	179
25.35833	179
25.36667	179
25.37500	179
25.38333	179
25.39167	178
25.40000	179
25.40833	179
25.41667	179
25.42500	179
25.43333	179
25.44167	179
25.45000	179
25.45833	180
25.46667	180
25.47500	180
25.48333	180
25.49167	181
25.50000	181
25.50833	182
25.51667	182
25.52500	182
25.53333	182
25.54167	183
25.55000	183
25.55833	183
25.56667	184
25.57500	184
25.58333	184
25.59167	185
25.60000	185
25.60833	186
25.61667	186
25.62500	187
25.63333	187
25.64167	188
25.65000	188
25.65833	189
25.66667	190
25.67500	190
25.68333	191
25.69167	191
25.70000	192
25.70833	192
25.71667	193
25.72500	193
25.73333	194
25.74167	194
25.75000	195
25.75833	196
25.76667	196
25.77500	197
25.78333	198
25.79167	199
25.80000	200
25.80833	201
25.81667	201
25.82500	202
25.83333	203
25.84167	203
25.85000	204
25.85833	205
25.86667	206
25.87500	207
25.88333	208
25.89167	209
25.90000	210
25.90833	211
25.91667	213
25.92500	214
25.93333	216
25.94167	218
25.95000	220
25.95833	223
25.96667	225
25.97500	229
25.98333	232
25.99167	234
26.00000	238
26.00833	242
26.01667	246
26.02500	250
26.03333	254
26.04167	259
26.05000	263
26.05833	269
26.06667	275
26.07500	281
26.08333	288
26.09167	295
26.10000	303
26.10833	311
26.11667	319
26.12500	328
26.13333	338
26.14167	349
26.15000	360
26.15833	372
26.16667	385
26.17500	398
26.18333	412
26.19167	428
26.20000	444
26.20833	461
26.21667	479
26.22500	498
26.23333	517
26.24167	538
26.25000	560
26.25833	582
26.26667	606
26.27500	631
26.28333	657
26.29167	684
26.30000	711
26.30833	739
26.31667	768
26.32500	798
26.33333	828
26.34167	858
26.35000	889
26.35833	920
26.36667	951
26.37500	983
26.38333	1015
26.39167	1046
26.40000	1078
26.40833	1108
26.41667	1139
26.42500	1168
26.43333	1196
26.44167	1223
26.45000	1250
26.45833	1275
26.46667	1298
26.47500	1320
26.48333	1341
26.49167	1360
26.50000	1376
26.50833	1391
26.51667	1403
26.52500	1413
26.53333	1420
26.54167	1426
26.55000	1429
26.55833	1430
26.56667	1429
26.57500	1425
26.58333	1419
26.59167	1411
26.60000	1401
26.60833	1388
26.61667	1373
26.62500	1356
26.63333	1337
26.64167	1317
26.65000	1295
26.65833	1272
26.66667	1247
26.67500	1221
26.68333	1194
26.69167	1166
26.70000	1137
26.70833	1108
26.71667	1078
26.72500	1048
26.73333	1017
26.74167	986
26.75000	954
26.75833	923
26.76667	892
26.77500	861
26.78333	831
26.79167	802
26.80000	772
26.80833	744
26.81667	716
26.82500	689
26.83333	663
26.84167	637
26.85000	612
26.85833	588
26.86667	565
26.87500	543
26.88333	521
26.89167	501
26.90000	481
26.90833	462
26.91667	444
26.92500	426
26.93333	409
26.94167	394
26.95000	378
26.95833	364
26.96667	350
26.97500	336
26.98333	323
26.99167	311
27.00000	300
27.00833	289
27.01667	278
27.02500	268
27.03333	258
27.04167	249
27.05000	240
27.05833	232
27.06667	224
27.07500	216
27.08333	208
27.09167	200
27.10000	193
27.10833	186
27.11667	180
27.12500	173
27.13333	167
27.14167	160
27.15000	154
27.15833	148
27.16667	143
27.17500	138
27.18333	133
27.19167	127
27.20000	122
27.20833	118
27.21667	114
27.22500	109
27.23333	105
27.24167	100
27.25000	96
27.25833	92
27.26667	88
27.27500	85
27.28333	81
27.29167	77
27.30000	74
27.30833	70
27.31667	66
27.32500	62
27.33333	59
27.34167	56
27.35000	53
27.35833	51
27.36667	48
27.37500	45
27.38333	42
27.39167	40
27.40000	37
27.40833	35
27.41667	32
27.42500	29
27.43333	27
27.44167	24
27.45000	22
27.45833	20
27.46667	18
27.47500	15
27.48333	13
27.49167	11
27.50000	9
27.50833	7
27.51667	5
27.52500	3
27.53333	2
27.54167	-0
27.55000	-2
27.55833	-3
27.56667	-5
27.57500	-6
27.58333	-8
27.59167	-9
27.60000	-11
27.60833	-12
27.61667	-14
27.62500	-15
27.63333	-16
27.64167	-17
27.65000	-18
27.65833	-19
27.66667	-20
27.67500	-21
27.68333	-22
27.69167	-23
27.70000	-24
27.70833	-25
27.71667	-26
27.72500	-27
27.73333	-28
27.74167	-29
27.75000	-31
27.75833	-31
27.76667	-33
27.77500	-33
27.78333	-34
27.79167	-35
27.80000	-36
27.80833	-37
27.81667	-38
27.82500	-39
27.83333	-40
27.84167	-41
27.85000	-42
27.85833	-42
27.86667	-43
27.87500	-44
27.88333	-44
27.89167	-44
27.90000	-45
27.90833	-45
27.91667	-46
27.92500	-47
27.93333	-48
27.94167	-48
27.95000	-49
27.95833	-50
27.96667	-51
27.97500	-51
27.98333	-52
27.99167	-52
28.00000	-53

