R.Time (min)	Intensity
0.00000	-27
0.00833	-27
0.01667	-1
0.02500	-1
0.03333	-2
0.04167	-2
0.05000	-3
0.05833	-4
0.06667	-4
0.07500	-5
0.08333	-5
0.09167	-5
0.10000	-6
0.10833	-6
0.11667	-6
0.12500	-6
0.13333	-6
0.14167	-6
0.15000	-6
0.15833	-7
0.16667	-7
0.17500	-8
0.18333	-8
0.19167	-9
0.20000	-9
0.20833	-9
0.21667	-10
0.22500	-10
0.23333	-11
0.24167	-12
0.25000	-13
0.25833	-13
0.26667	-14
0.27500	-14
0.28333	-14
0.29167	-15
0.30000	-15
0.30833	-16
0.31667	-16
0.32500	-17
0.33333	-18
0.34167	-18
0.35000	-18
0.35833	-19
0.36667	-19
0.37500	-20
0.38333	-21
0.39167	-22
0.40000	-22
0.40833	-23
0.41667	-23
0.42500	-23
0.43333	-24
0.44167	-24
0.45000	-25
0.45833	-25
0.46667	-26
0.47500	-26
0.48333	-27
0.49167	-28
0.50000	-29
0.50833	-30
0.51667	-31
0.52500	-31
0.53333	-31
0.54167	-31
0.55000	-32
0.55833	-32
0.56667	-33
0.57500	-34
0.58333	-35
0.59167	-36
0.60000	-36
0.60833	-37
0.61667	-37
0.62500	-37
0.63333	-38
0.64167	-38
0.65000	-38
0.65833	-39
0.66667	-39
0.67500	-39
0.68333	-40
0.69167	-40
0.70000	-40
0.70833	-41
0.71667	-41
0.72500	-42
0.73333	-42
0.74167	-42
0.75000	-43
0.75833	-43
0.76667	-44
0.77500	-44
0.78333	-45
0.79167	-45
0.80000	-45
0.80833	-46
0.81667	-47
0.82500	-48
0.83333	-48
0.84167	-49
0.85000	-49
0.85833	-49
0.86667	-49
0.87500	-50
0.88333	-51
0.89167	-51
0.90000	-52
0.90833	-52
0.91667	-53
0.92500	-53
0.93333	-54
0.94167	-54
0.95000	-55
0.95833	-55
0.96667	-56
0.97500	-57
0.98333	-57
0.99167	-58
1.00000	-59
1.00833	-59
1.01667	-59
1.02500	-60
1.03333	-60
1.04167	-60
1.05000	-61
1.05833	-62
1.06667	-62
1.07500	-63
1.08333	-63
1.09167	-63
1.10000	-64
1.10833	-64
1.11667	-65
1.12500	-66
1.13333	-66
1.14167	-66
1.15000	-67
1.15833	-68
1.16667	-68
1.17500	-69
1.18333	-69
1.19167	-69
1.20000	-70
1.20833	-70
1.21667	-70
1.22500	-71
1.23333	-71
1.24167	-72
1.25000	-72
1.25833	-72
1.26667	-72
1.27500	-72
1.28333	-72
1.29167	-73
1.30000	-73
1.30833	-73
1.31667	-74
1.32500	-74
1.33333	-74
1.34167	-74
1.35000	-74
1.35833	-74
1.36667	-74
1.37500	-74
1.38333	-74
1.39167	-74
1.40000	-75
1.40833	-75
1.41667	-75
1.42500	-75
1.43333	-76
1.44167	-76
1.45000	-76
1.45833	-76
1.46667	-77
1.47500	-77
1.48333	-77
1.49167	-78
1.50000	-78
1.50833	-79
1.51667	-79
1.52500	-79
1.53333	-80
1.54167	-80
1.55000	-81
1.55833	-81
1.56667	-81
1.57500	-82
1.58333	-82
1.59167	-83
1.60000	-82
1.60833	-83
1.61667	-83
1.62500	-83
1.63333	-83
1.64167	-84
1.65000	-84
1.65833	-84
1.66667	-85
1.67500	-85
1.68333	-86
1.69167	-86
1.70000	-87
1.70833	-87
1.71667	-87
1.72500	-88
1.73333	-89
1.74167	-89
1.75000	-89
1.75833	-89
1.76667	-90
1.77500	-90
1.78333	-90
1.79167	-90
1.80000	-91
1.80833	-92
1.81667	-92
1.82500	-92
1.83333	-93
1.84167	-93
1.85000	-94
1.85833	-94
1.86667	-93
1.87500	-94
1.88333	-94
1.89167	-94
1.90000	-94
1.90833	-94
1.91667	-94
1.92500	-95
1.93333	-95
1.94167	-95
1.95000	-95
1.95833	-96
1.96667	-96
1.97500	-96
1.98333	-96
1.99167	-97
2.00000	-97
2.00833	-96
2.01667	-96
2.02500	-96
2.03333	-96
2.04167	-96
2.05000	-96
2.05833	-97
2.06667	-97
2.07500	-97
2.08333	-97
2.09167	-98
2.10000	-98
2.10833	-98
2.11667	-97
2.12500	-97
2.13333	-96
2.14167	-96
2.15000	-96
2.15833	-95
2.16667	-96
2.17500	-96
2.18333	-95
2.19167	-94
2.20000	-94
2.20833	-94
2.21667	-93
2.22500	-92
2.23333	-91
2.24167	-90
2.25000	-89
2.25833	-88
2.26667	-87
2.27500	-87
2.28333	-86
2.29167	-85
2.30000	-84
2.30833	-82
2.31667	-80
2.32500	-78
2.33333	-77
2.34167	-74
2.35000	-72
2.35833	-70
2.36667	-68
2.37500	-65
2.38333	-62
2.39167	-59
2.40000	-56
2.40833	-53
2.41667	-49
2.42500	-45
2.43333	-41
2.44167	-38
2.45000	-33
2.45833	-29
2.46667	-24
2.47500	-19
2.48333	-14
2.49167	-8
2.50000	-1
2.50833	6
2.51667	13
2.52500	21
2.53333	29
2.54167	37
2.55000	46
2.55833	55
2.56667	65
2.57500	76
2.58333	87
2.59167	98
2.60000	111
2.60833	124
2.61667	138
2.62500	153
2.63333	169
2.64167	185
2.65000	202
2.65833	220
2.66667	239
2.67500	259
2.68333	280
2.69167	302
2.70000	325
2.70833	350
2.71667	376
2.72500	403
2.73333	432
2.74167	462
2.75000	494
2.75833	527
2.76667	563
2.77500	600
2.78333	638
2.79167	679
2.80000	722
2.80833	767
2.81667	815
2.82500	865
2.83333	918
2.84167	974
2.85000	1032
2.85833	1094
2.86667	1158
2.87500	1226
2.88333	1297
2.89167	1372
2.90000	1451
2.90833	1534
2.91667	1620
2.92500	1711
2.93333	1806
2.94167	1906
2.95000	2011
2.95833	2119
2.96667	2233
2.97500	2351
2.98333	2475
2.99167	2604
3.00000	2737
3.00833	2876
3.01667	3021
3.02500	3170
3.03333	3324
3.04167	3484
3.05000	3648
3.05833	3818
3.06667	3992
3.07500	4170
3.08333	4353
3.09167	4540
3.10000	4731
3.10833	4925
3.11667	5122
3.12500	5321
3.13333	5522
3.14167	5725
3.15000	5930
3.15833	6134
3.16667	6338
3.17500	6542
3.18333	6744
3.19167	6944
3.20000	7142
3.20833	7335
3.21667	7525
3.22500	7710
3.23333	7889
3.24167	8063
3.25000	8229
3.25833	8388
3.26667	8539
3.27500	8681
3.28333	8813
3.29167	8935
3.30000	9048
3.30833	9149
3.31667	9239
3.32500	9316
3.33333	9382
3.34167	9435
3.35000	9475
3.35833	9503
3.36667	9519
3.37500	9521
3.38333	9510
3.39167	9487
3.40000	9451
3.40833	9403
3.41667	9343
3.42500	9270
3.43333	9186
3.44167	9090
3.45000	8984
3.45833	8868
3.46667	8742
3.47500	8607
3.48333	8462
3.49167	8310
3.50000	8149
3.50833	7982
3.51667	7809
3.52500	7631
3.53333	7447
3.54167	7258
3.55000	7066
3.55833	6871
3.56667	6673
3.57500	6474
3.58333	6273
3.59167	6071
3.60000	5869
3.60833	5668
3.61667	5468
3.62500	5269
3.63333	5073
3.64167	4878
3.65000	4686
3.65833	4497
3.66667	4311
3.67500	4128
3.68333	3950
3.69167	3776
3.70000	3606
3.70833	3440
3.71667	3279
3.72500	3122
3.73333	2972
3.74167	2826
3.75000	2685
3.75833	2549
3.76667	2418
3.77500	2291
3.78333	2170
3.79167	2054
3.80000	1943
3.80833	1837
3.81667	1735
3.82500	1638
3.83333	1546
3.84167	1458
3.85000	1374
3.85833	1295
3.86667	1220
3.87500	1148
3.88333	1081
3.89167	1017
3.90000	957
3.90833	899
3.91667	845
3.92500	794
3.93333	747
3.94167	702
3.95000	660
3.95833	620
3.96667	583
3.97500	548
3.98333	515
3.99167	483
4.00000	454
4.00833	426
4.01667	400
4.02500	375
4.03333	352
4.04167	331
4.05000	310
4.05833	291
4.06667	273
4.07500	257
4.08333	241
4.09167	226
4.10000	212
4.10833	198
4.11667	186
4.12500	174
4.13333	162
4.14167	151
4.15000	141
4.15833	131
4.16667	121
4.17500	112
4.18333	103
4.19167	94
4.20000	86
4.20833	78
4.21667	70
4.22500	63
4.23333	56
4.24167	49
4.25000	42
4.25833	36
4.26667	30
4.27500	24
4.28333	18
4.29167	11
4.30000	6
4.30833	0
4.31667	-5
4.32500	-10
4.33333	-15
4.34167	-20
4.35000	-26
4.35833	-31
4.36667	-35
4.37500	-40
4.38333	-45
4.39167	-49
4.40000	-54
4.40833	-58
4.41667	-62
4.42500	-65
4.43333	-69
4.44167	-72
4.45000	-76
4.45833	-79
4.46667	-82
4.47500	-85
4.48333	-89
4.49167	-92
4.50000	-95
4.50833	-98
4.51667	-100
4.52500	-103
4.53333	-105
4.54167	-108
4.55000	-110
4.55833	-112
4.56667	-114
4.57500	-116
4.58333	-118
4.59167	-119
4.60000	-121
4.60833	-122
4.61667	-124
4.62500	-125
4.63333	-126
4.64167	-127
4.65000	-128
4.65833	-129
4.66667	-130
4.67500	-131
4.68333	-132
4.69167	-133
4.70000	-133
4.70833	-134
4.71667	-135
4.72500	-136
4.73333	-137
4.74167	-138
4.75000	-138
4.75833	-138
4.76667	-138
4.77500	-139
4.78333	-139
4.79167	-140
4.80000	-140
4.80833	-140
4.81667	-140
4.82500	-141
4.83333	-141
4.84167	-141
4.85000	-141
4.85833	-140
4.86667	-140
4.87500	-141
4.88333	-141
4.89167	-141
4.90000	-141
4.90833	-142
4.91667	-142
4.92500	-142
4.93333	-142
4.94167	-142
4.95000	-142
4.95833	-141
4.96667	-141
4.97500	-141
4.98333	-141
4.99167	-141
5.00000	-140
5.00833	-140
5.01667	-140
5.02500	-140
5.03333	-140
5.04167	-140
5.05000	-139
5.05833	-139
5.06667	-139
5.07500	-139
5.08333	-139
5.09167	-139
5.10000	-138
5.10833	-138
5.11667	-138
5.12500	-137
5.13333	-137
5.14167	-137
5.15000	-137
5.15833	-138
5.16667	-138
5.17500	-138
5.18333	-138
5.19167	-138
5.20000	-138
5.20833	-138
5.21667	-138
5.22500	-139
5.23333	-139
5.24167	-139
5.25000	-139
5.25833	-140
5.26667	-140
5.27500	-140
5.28333	-141
5.29167	-141
5.30000	-141
5.30833	-141
5.31667	-141
5.32500	-141
5.33333	-141
5.34167	-141
5.35000	-141
5.35833	-141
5.36667	-142
5.37500	-142
5.38333	-142
5.39167	-142
5.40000	-142
5.40833	-143
5.41667	-143
5.42500	-143
5.43333	-143
5.44167	-144
5.45000	-144
5.45833	-144
5.46667	-144
5.47500	-144
5.48333	-144
5.49167	-144
5.50000	-145
5.50833	-145
5.51667	-145
5.52500	-145
5.53333	-146
5.54167	-146
5.55000	-147
5.55833	-147
5.56667	-146
5.57500	-146
5.58333	-146
5.59167	-147
5.60000	-147
5.60833	-148
5.61667	-148
5.62500	-148
5.63333	-148
5.64167	-148
5.65000	-148
5.65833	-149
5.66667	-149
5.67500	-149
5.68333	-149
5.69167	-150
5.70000	-151
5.70833	-151
5.71667	-152
5.72500	-152
5.73333	-153
5.74167	-153
5.75000	-152
5.75833	-152
5.76667	-152
5.77500	-152
5.78333	-152
5.79167	-153
5.80000	-153
5.80833	-153
5.81667	-153
5.82500	-153
5.83333	-154
5.84167	-154
5.85000	-154
5.85833	-154
5.86667	-154
5.87500	-154
5.88333	-154
5.89167	-154
5.90000	-154
5.90833	-154
5.91667	-153
5.92500	-153
5.93333	-153
5.94167	-153
5.95000	-153
5.95833	-153
5.96667	-153
5.97500	-153
5.98333	-152
5.99167	-152
6.00000	-152
6.00833	-153
6.01667	-153
6.02500	-152
6.03333	-152
6.04167	-152
6.05000	-151
6.05833	-151
6.06667	-150
6.07500	-150
6.08333	-150
6.09167	-150
6.10000	-150
6.10833	-150
6.11667	-150
6.12500	-150
6.13333	-150
6.14167	-151
6.15000	-150
6.15833	-150
6.16667	-150
6.17500	-150
6.18333	-149
6.19167	-149
6.20000	-148
6.20833	-148
6.21667	-148
6.22500	-148
6.23333	-149
6.24167	-149
6.25000	-149
6.25833	-148
6.26667	-148
6.27500	-148
6.28333	-147
6.29167	-147
6.30000	-147
6.30833	-147
6.31667	-147
6.32500	-146
6.33333	-146
6.34167	-146
6.35000	-145
6.35833	-145
6.36667	-145
6.37500	-145
6.38333	-145
6.39167	-145
6.40000	-145
6.40833	-145
6.41667	-145
6.42500	-145
6.43333	-145
6.44167	-145
6.45000	-145
6.45833	-145
6.46667	-145
6.47500	-145
6.48333	-145
6.49167	-144
6.50000	-144
6.50833	-144
6.51667	-144
6.52500	-144
6.53333	-145
6.54167	-145
6.55000	-145
6.55833	-145
6.56667	-145
6.57500	-145
6.58333	-145
6.59167	-145
6.60000	-144
6.60833	-144
6.61667	-144
6.62500	-144
6.63333	-144
6.64167	-144
6.65000	-144
6.65833	-144
6.66667	-144
6.67500	-144
6.68333	-145
6.69167	-145
6.70000	-145
6.70833	-145
6.71667	-145
6.72500	-145
6.73333	-145
6.74167	-145
6.75000	-145
6.75833	-145
6.76667	-146
6.77500	-146
6.78333	-146
6.79167	-146
6.80000	-146
6.80833	-146
6.81667	-146
6.82500	-146
6.83333	-146
6.84167	-146
6.85000	-146
6.85833	-146
6.86667	-146
6.87500	-146
6.88333	-146
6.89167	-145
6.90000	-145
6.90833	-145
6.91667	-144
6.92500	-144
6.93333	-144
6.94167	-144
6.95000	-144
6.95833	-143
6.96667	-143
6.97500	-143
6.98333	-142
6.99167	-142
7.00000	-141
7.00833	-140
7.01667	-140
7.02500	-139
7.03333	-137
7.04167	-136
7.05000	-134
7.05833	-131
7.06667	-129
7.07500	-126
7.08333	-123
7.09167	-120
7.10000	-115
7.10833	-110
7.11667	-104
7.12500	-97
7.13333	-89
7.14167	-80
7.15000	-70
7.15833	-59
7.16667	-46
7.17500	-32
7.18333	-17
7.19167	-1
7.20000	17
7.20833	36
7.21667	57
7.22500	79
7.23333	102
7.24167	126
7.25000	151
7.25833	177
7.26667	201
7.27500	224
7.28333	243
7.29167	259
7.30000	268
7.30833	269
7.31667	261
7.32500	245
7.33333	220
7.34167	191
7.35000	164
7.35833	146
7.36667	150
7.37500	191
7.38333	286
7.39167	454
7.40000	715
7.40833	1089
7.41667	1595
7.42500	2247
7.43333	3057
7.44167	4031
7.45000	5168
7.45833	6458
7.46667	7885
7.47500	9421
7.48333	11027
7.49167	12657
7.50000	14251
7.50833	15746
7.51667	17076
7.52500	18176
7.53333	18990
7.54167	19478
7.55000	19619
7.55833	19414
7.56667	18882
7.57500	18066
7.58333	17018
7.59167	15802
7.60000	14481
7.60833	13117
7.61667	11762
7.62500	10460
7.63333	9242
7.64167	8130
7.65000	7134
7.65833	6258
7.66667	5497
7.67500	4845
7.68333	4290
7.69167	3819
7.70000	3422
7.70833	3087
7.71667	2803
7.72500	2560
7.73333	2352
7.74167	2171
7.75000	2012
7.75833	1872
7.76667	1747
7.77500	1634
7.78333	1531
7.79167	1436
7.80000	1349
7.80833	1268
7.81667	1193
7.82500	1122
7.83333	1056
7.84167	993
7.85000	934
7.85833	879
7.86667	826
7.87500	776
7.88333	728
7.89167	683
7.90000	640
7.90833	600
7.91667	562
7.92500	527
7.93333	495
7.94167	465
7.95000	438
7.95833	413
7.96667	391
7.97500	372
7.98333	354
7.99167	339
8.00000	326
8.00833	315
8.01667	306
8.02500	297
8.03333	290
8.04167	283
8.05000	277
8.05833	272
8.06667	266
8.07500	260
8.08333	253
8.09167	247
8.10000	240
8.10833	233
8.11667	225
8.12500	218
8.13333	211
8.14167	203
8.15000	196
8.15833	189
8.16667	182
8.17500	176
8.18333	170
8.19167	164
8.20000	159
8.20833	155
8.21667	150
8.22500	146
8.23333	141
8.24167	138
8.25000	134
8.25833	131
8.26667	129
8.27500	127
8.28333	125
8.29167	124
8.30000	123
8.30833	122
8.31667	121
8.32500	119
8.33333	118
8.34167	117
8.35000	117
8.35833	117
8.36667	116
8.37500	115
8.38333	115
8.39167	114
8.40000	113
8.40833	112
8.41667	111
8.42500	109
8.43333	108
8.44167	107
8.45000	106
8.45833	105
8.46667	104
8.47500	102
8.48333	101
8.49167	99
8.50000	97
8.50833	96
8.51667	94
8.52500	93
8.53333	92
8.54167	90
8.55000	89
8.55833	87
8.56667	86
8.57500	84
8.58333	83
8.59167	81
8.60000	80
8.60833	79
8.61667	78
8.62500	77
8.63333	75
8.64167	75
8.65000	74
8.65833	75
8.66667	75
8.67500	76
8.68333	76
8.69167	77
8.70000	78
8.70833	80
8.71667	81
8.72500	83
8.73333	85
8.74167	87
8.75000	90
8.75833	94
8.76667	97
8.77500	101
8.78333	105
8.79167	110
8.80000	114
8.80833	119
8.81667	125
8.82500	131
8.83333	138
8.84167	146
8.85000	155
8.85833	166
8.86667	180
8.87500	196
8.88333	216
8.89167	239
8.90000	267
8.90833	302
8.91667	342
8.92500	390
8.93333	446
8.94167	510
8.95000	584
8.95833	666
8.96667	758
8.97500	858
8.98333	967
8.99167	1082
9.00000	1204
9.00833	1329
9.01667	1456
9.02500	1583
9.03333	1707
9.04167	1824
9.05000	1934
9.05833	2033
9.06667	2119
9.07500	2190
9.08333	2245
9.09167	2283
9.10000	2304
9.10833	2308
9.11667	2294
9.12500	2263
9.13333	2218
9.14167	2159
9.15000	2088
9.15833	2008
9.16667	1919
9.17500	1824
9.18333	1725
9.19167	1624
9.20000	1523
9.20833	1422
9.21667	1323
9.22500	1228
9.23333	1136
9.24167	1050
9.25000	969
9.25833	893
9.26667	823
9.27500	759
9.28333	700
9.29167	647
9.30000	599
9.30833	556
9.31667	518
9.32500	485
9.33333	455
9.34167	430
9.35000	409
9.35833	392
9.36667	379
9.37500	369
9.38333	364
9.39167	363
9.40000	366
9.40833	374
9.41667	387
9.42500	407
9.43333	434
9.44167	469
9.45000	515
9.45833	574
9.46667	648
9.47500	741
9.48333	855
9.49167	995
9.50000	1166
9.50833	1372
9.51667	1618
9.52500	1910
9.53333	2253
9.54167	2653
9.55000	3113
9.55833	3638
9.56667	4230
9.57500	4889
9.58333	5615
9.59167	6405
9.60000	7255
9.60833	8158
9.61667	9104
9.62500	10084
9.63333	11083
9.64167	12088
9.65000	13083
9.65833	14052
9.66667	14981
9.67500	15852
9.68333	16652
9.69167	17369
9.70000	17993
9.70833	18515
9.71667	18929
9.72500	19234
9.73333	19430
9.74167	19522
9.75000	19515
9.75833	19417
9.76667	19239
9.77500	18992
9.78333	18690
9.79167	18345
9.80000	17972
9.80833	17583
9.81667	17191
9.82500	16807
9.83333	16442
9.84167	16105
9.85000	15805
9.85833	15546
9.86667	15336
9.87500	15176
9.88333	15069
9.89167	15016
9.90000	15018
9.90833	15075
9.91667	15184
9.92500	15344
9.93333	15552
9.94167	15806
9.95000	16103
9.95833	16439
9.96667	16812
9.97500	17217
9.98333	17652
9.99167	18113
10.00000	18597
10.00833	19099
10.01667	19617
10.02500	20147
10.03333	20682
10.04167	21219
10.05000	21747
10.05833	22254
10.06667	22720
10.07500	23121
10.08333	23424
10.09167	23591
10.10000	23584
10.10833	23366
10.11667	22912
10.12500	22209
10.13333	21261
10.14167	20092
10.15000	18742
10.15833	17262
10.16667	15707
10.17500	14132
10.18333	12589
10.19167	11116
10.20000	9745
10.20833	8495
10.21667	7374
10.22500	6386
10.23333	5525
10.24167	4783
10.25000	4149
10.25833	3611
10.26667	3155
10.27500	2772
10.28333	2449
10.29167	2176
10.30000	1946
10.30833	1752
10.31667	1586
10.32500	1444
10.33333	1321
10.34167	1215
10.35000	1122
10.35833	1039
10.36667	965
10.37500	899
10.38333	840
10.39167	785
10.40000	735
10.40833	689
10.41667	647
10.42500	608
10.43333	572
10.44167	539
10.45000	509
10.45833	481
10.46667	457
10.47500	435
10.48333	416
10.49167	399
10.50000	385
10.50833	375
10.51667	367
10.52500	362
10.53333	360
10.54167	360
10.55000	364
10.55833	371
10.56667	381
10.57500	393
10.58333	409
10.59167	429
10.60000	452
10.60833	479
10.61667	511
10.62500	547
10.63333	590
10.64167	639
10.65000	696
10.65833	763
10.66667	842
10.67500	934
10.68333	1045
10.69167	1177
10.70000	1335
10.70833	1524
10.71667	1750
10.72500	2018
10.73333	2338
10.74167	2716
10.75000	3161
10.75833	3680
10.76667	4281
10.77500	4972
10.78333	5757
10.79167	6642
10.80000	7628
10.80833	8713
10.81667	9893
10.82500	11162
10.83333	12508
10.84167	13915
10.85000	15365
10.85833	16837
10.86667	18305
10.87500	19744
10.88333	21127
10.89167	22427
10.90000	23616
10.90833	24671
10.91667	25570
10.92500	26296
10.93333	26834
10.94167	27176
10.95000	27318
10.95833	27262
10.96667	27013
10.97500	26582
10.98333	25983
10.99167	25234
11.00000	24354
11.00833	23364
11.01667	22286
11.02500	21143
11.03333	19955
11.04167	18743
11.05000	17525
11.05833	16317
11.06667	15134
11.07500	13988
11.08333	12888
11.09167	11842
11.10000	10856
11.10833	9932
11.11667	9073
11.12500	8277
11.13333	7546
11.14167	6876
11.15000	6265
11.15833	5710
11.16667	5207
11.17500	4752
11.18333	4342
11.19167	3973
11.20000	3640
11.20833	3341
11.21667	3071
11.22500	2829
11.23333	2610
11.24167	2412
11.25000	2233
11.25833	2070
11.26667	1922
11.27500	1786
11.28333	1663
11.29167	1549
11.30000	1445
11.30833	1348
11.31667	1258
11.32500	1175
11.33333	1098
11.34167	1026
11.35000	958
11.35833	894
11.36667	835
11.37500	779
11.38333	727
11.39167	678
11.40000	633
11.40833	590
11.41667	551
11.42500	514
11.43333	479
11.44167	447
11.45000	417
11.45833	389
11.46667	364
11.47500	340
11.48333	319
11.49167	300
11.50000	282
11.50833	266
11.51667	252
11.52500	239
11.53333	227
11.54167	216
11.55000	206
11.55833	197
11.56667	188
11.57500	181
11.58333	174
11.59167	168
11.60000	163
11.60833	157
11.61667	153
11.62500	148
11.63333	145
11.64167	142
11.65000	140
11.65833	138
11.66667	137
11.67500	136
11.68333	137
11.69167	137
11.70000	139
11.70833	141
11.71667	143
11.72500	146
11.73333	149
11.74167	153
11.75000	157
11.75833	161
11.76667	164
11.77500	167
11.78333	170
11.79167	172
11.80000	173
11.80833	174
11.81667	174
11.82500	173
11.83333	172
11.84167	169
11.85000	165
11.85833	161
11.86667	156
11.87500	150
11.88333	143
11.89167	136
11.90000	129
11.90833	121
11.91667	113
11.92500	105
11.93333	97
11.94167	89
11.95000	82
11.95833	74
11.96667	67
11.97500	61
11.98333	55
11.99167	49
12.00000	44
12.00833	39
12.01667	35
12.02500	31
12.03333	27
12.04167	24
12.05000	21
12.05833	19
12.06667	16
12.07500	15
12.08333	14
12.09167	12
12.10000	12
12.10833	11
12.11667	10
12.12500	10
12.13333	8
12.14167	7
12.15000	6
12.15833	5
12.16667	4
12.17500	2
12.18333	1
12.19167	-1
12.20000	-2
12.20833	-4
12.21667	-6
12.22500	-8
12.23333	-10
12.24167	-12
12.25000	-13
12.25833	-15
12.26667	-17
12.27500	-19
12.28333	-21
12.29167	-22
12.30000	-24
12.30833	-25
12.31667	-27
12.32500	-28
12.33333	-30
12.34167	-31
12.35000	-33
12.35833	-35
12.36667	-36
12.37500	-38
12.38333	-39
12.39167	-41
12.40000	-42
12.40833	-44
12.41667	-45
12.42500	-46
12.43333	-47
12.44167	-48
12.45000	-49
12.45833	-49
12.46667	-50
12.47500	-50
12.48333	-51
12.49167	-51
12.50000	-52
12.50833	-52
12.51667	-53
12.52500	-53
12.53333	-53
12.54167	-53
12.55000	-53
12.55833	-52
12.56667	-52
12.57500	-51
12.58333	-51
12.59167	-50
12.60000	-50
12.60833	-50
12.61667	-49
12.62500	-48
12.63333	-47
12.64167	-46
12.65000	-45
12.65833	-44
12.66667	-43
12.67500	-41
12.68333	-40
12.69167	-39
12.70000	-38
12.70833	-36
12.71667	-35
12.72500	-34
12.73333	-33
12.74167	-32
12.75000	-31
12.75833	-30
12.76667	-29
12.77500	-29
12.78333	-28
12.79167	-28
12.80000	-27
12.80833	-26
12.81667	-25
12.82500	-25
12.83333	-24
12.84167	-23
12.85000	-22
12.85833	-22
12.86667	-21
12.87500	-20
12.88333	-19
12.89167	-18
12.90000	-17
12.90833	-16
12.91667	-14
12.92500	-13
12.93333	-11
12.94167	-9
12.95000	-8
12.95833	-7
12.96667	-5
12.97500	-4
12.98333	-3
12.99167	-1
13.00000	0
13.00833	2
13.01667	3
13.02500	5
13.03333	6
13.04167	7
13.05000	8
13.05833	9
13.06667	9
13.07500	10
13.08333	11
13.09167	11
13.10000	11
13.10833	10
13.11667	10
13.12500	10
13.13333	9
13.14167	9
13.15000	8
13.15833	7
13.16667	5
13.17500	4
13.18333	3
13.19167	2
13.20000	1
13.20833	-0
13.21667	-1
13.22500	-2
13.23333	-3
13.24167	-5
13.25000	-6
13.25833	-7
13.26667	-7
13.27500	-8
13.28333	-8
13.29167	-8
13.30000	-8
13.30833	-8
13.31667	-7
13.32500	-7
13.33333	-7
13.34167	-6
13.35000	-6
13.35833	-6
13.36667	-5
13.37500	-5
13.38333	-4
13.39167	-4
13.40000	-3
13.40833	-2
13.41667	-0
13.42500	1
13.43333	2
13.44167	4
13.45000	5
13.45833	6
13.46667	8
13.47500	9
13.48333	11
13.49167	13
13.50000	15
13.50833	17
13.51667	19
13.52500	22
13.53333	25
13.54167	28
13.55000	31
13.55833	35
13.56667	40
13.57500	45
13.58333	50
13.59167	56
13.60000	63
13.60833	71
13.61667	79
13.62500	87
13.63333	97
13.64167	107
13.65000	118
13.65833	129
13.66667	140
13.67500	152
13.68333	164
13.69167	176
13.70000	188
13.70833	200
13.71667	211
13.72500	221
13.73333	231
13.74167	241
13.75000	249
13.75833	257
13.76667	263
13.77500	269
13.78333	274
13.79167	279
13.80000	283
13.80833	287
13.81667	290
13.82500	293
13.83333	296
13.84167	299
13.85000	301
13.85833	304
13.86667	307
13.87500	310
13.88333	314
13.89167	318
13.90000	323
13.90833	328
13.91667	333
13.92500	337
13.93333	342
13.94167	346
13.95000	350
13.95833	353
13.96667	356
13.97500	358
13.98333	359
13.99167	359
14.00000	358
14.00833	356
14.01667	353
14.02500	348
14.03333	343
14.04167	337
14.05000	330
14.05833	322
14.06667	314
14.07500	305
14.08333	296
14.09167	286
14.10000	277
14.10833	267
14.11667	258
14.12500	249
14.13333	240
14.14167	231
14.15000	223
14.15833	215
14.16667	208
14.17500	201
14.18333	195
14.19167	189
14.20000	184
14.20833	179
14.21667	175
14.22500	171
14.23333	168
14.24167	165
14.25000	163
14.25833	161
14.26667	159
14.27500	158
14.28333	157
14.29167	156
14.30000	155
14.30833	155
14.31667	155
14.32500	156
14.33333	157
14.34167	159
14.35000	160
14.35833	161
14.36667	162
14.37500	162
14.38333	163
14.39167	165
14.40000	166
14.40833	167
14.41667	169
14.42500	170
14.43333	171
14.44167	173
14.45000	174
14.45833	176
14.46667	177
14.47500	178
14.48333	180
14.49167	181
14.50000	182
14.50833	184
14.51667	185
14.52500	186
14.53333	187
14.54167	187
14.55000	188
14.55833	189
14.56667	189
14.57500	190
14.58333	190
14.59167	191
14.60000	191
14.60833	192
14.61667	192
14.62500	192
14.63333	192
14.64167	191
14.65000	191
14.65833	191
14.66667	191
14.67500	190
14.68333	190
14.69167	189
14.70000	189
14.70833	188
14.71667	188
14.72500	187
14.73333	187
14.74167	187
14.75000	187
14.75833	187
14.76667	187
14.77500	187
14.78333	187
14.79167	186
14.80000	186
14.80833	186
14.81667	185
14.82500	185
14.83333	185
14.84167	185
14.85000	185
14.85833	185
14.86667	185
14.87500	185
14.88333	185
14.89167	185
14.90000	185
14.90833	185
14.91667	184
14.92500	184
14.93333	183
14.94167	182
14.95000	182
14.95833	182
14.96667	181
14.97500	180
14.98333	180
14.99167	179
15.00000	178
15.00833	178
15.01667	177
15.02500	176
15.03333	175
15.04167	175
15.05000	175
15.05833	174
15.06667	174
15.07500	174
15.08333	175
15.09167	175
15.10000	176
15.10833	177
15.11667	178
15.12500	180
15.13333	182
15.14167	184
15.15000	187
15.15833	190
15.16667	193
15.17500	196
15.18333	200
15.19167	205
15.20000	209
15.20833	213
15.21667	217
15.22500	221
15.23333	225
15.24167	228
15.25000	231
15.25833	234
15.26667	236
15.27500	237
15.28333	238
15.29167	238
15.30000	238
15.30833	236
15.31667	234
15.32500	231
15.33333	227
15.34167	223
15.35000	218
15.35833	212
15.36667	206
15.37500	199
15.38333	192
15.39167	184
15.40000	176
15.40833	167
15.41667	159
15.42500	151
15.43333	143
15.44167	135
15.45000	127
15.45833	120
15.46667	113
15.47500	105
15.48333	98
15.49167	91
15.50000	85
15.50833	79
15.51667	73
15.52500	68
15.53333	63
15.54167	58
15.55000	53
15.55833	49
15.56667	45
15.57500	41
15.58333	37
15.59167	34
15.60000	30
15.60833	27
15.61667	24
15.62500	21
15.63333	19
15.64167	16
15.65000	14
15.65833	12
15.66667	11
15.67500	9
15.68333	8
15.69167	6
15.70000	5
15.70833	4
15.71667	3
15.72500	2
15.73333	1
15.74167	1
15.75000	0
15.75833	-0
15.76667	-0
15.77500	-0
15.78333	-0
15.79167	-0
15.80000	-1
15.80833	-1
15.81667	-1
15.82500	-1
15.83333	-1
15.84167	-1
15.85000	-0
15.85833	0
15.86667	1
15.87500	2
15.88333	3
15.89167	4
15.90000	6
15.90833	8
15.91667	10
15.92500	12
15.93333	15
15.94167	19
15.95000	23
15.95833	28
15.96667	34
15.97500	41
15.98333	49
15.99167	57
16.00000	67
16.00833	77
16.01667	88
16.02500	99
16.03333	111
16.04167	124
16.05000	137
16.05833	151
16.06667	165
16.07500	179
16.08333	192
16.09167	206
16.10000	219
16.10833	232
16.11667	243
16.12500	254
16.13333	264
16.14167	272
16.15000	280
16.15833	286
16.16667	291
16.17500	294
16.18333	295
16.19167	295
16.20000	292
16.20833	289
16.21667	284
16.22500	278
16.23333	271
16.24167	264
16.25000	255
16.25833	246
16.26667	237
16.27500	228
16.28333	218
16.29167	208
16.30000	199
16.30833	190
16.31667	182
16.32500	174
16.33333	168
16.34167	162
16.35000	156
16.35833	152
16.36667	148
16.37500	145
16.38333	143
16.39167	142
16.40000	143
16.40833	145
16.41667	148
16.42500	153
16.43333	158
16.44167	164
16.45000	171
16.45833	179
16.46667	189
16.47500	199
16.48333	211
16.49167	224
16.50000	237
16.50833	252
16.51667	267
16.52500	283
16.53333	300
16.54167	317
16.55000	335
16.55833	353
16.56667	371
16.57500	390
16.58333	408
16.59167	427
16.60000	444
16.60833	460
16.61667	475
16.62500	488
16.63333	501
16.64167	512
16.65000	520
16.65833	527
16.66667	532
16.67500	535
16.68333	536
16.69167	535
16.70000	531
16.70833	524
16.71667	516
16.72500	506
16.73333	494
16.74167	480
16.75000	465
16.75833	448
16.76667	430
16.77500	411
16.78333	392
16.79167	372
16.80000	351
16.80833	330
16.81667	309
16.82500	289
16.83333	268
16.84167	248
16.85000	229
16.85833	210
16.86667	192
16.87500	175
16.88333	159
16.89167	143
16.90000	129
16.90833	115
16.91667	103
16.92500	91
16.93333	79
16.94167	68
16.95000	59
16.95833	50
16.96667	41
16.97500	33
16.98333	26
16.99167	19
17.00000	13
17.00833	7
17.01667	2
17.02500	-4
17.03333	-8
17.04167	-13
17.05000	-17
17.05833	-21
17.06667	-24
17.07500	-27
17.08333	-30
17.09167	-34
17.10000	-36
17.10833	-39
17.11667	-41
17.12500	-43
17.13333	-45
17.14167	-47
17.15000	-49
17.15833	-51
17.16667	-53
17.17500	-55
17.18333	-57
17.19167	-58
17.20000	-60
17.20833	-62
17.21667	-63
17.22500	-65
17.23333	-66
17.24167	-68
17.25000	-69
17.25833	-70
17.26667	-72
17.27500	-73
17.28333	-73
17.29167	-74
17.30000	-75
17.30833	-76
17.31667	-76
17.32500	-77
17.33333	-78
17.34167	-78
17.35000	-79
17.35833	-79
17.36667	-79
17.37500	-79
17.38333	-79
17.39167	-79
17.40000	-79
17.40833	-79
17.41667	-79
17.42500	-79
17.43333	-79
17.44167	-79
17.45000	-79
17.45833	-79
17.46667	-79
17.47500	-79
17.48333	-79
17.49167	-79
17.50000	-78
17.50833	-78
17.51667	-78
17.52500	-78
17.53333	-78
17.54167	-77
17.55000	-77
17.55833	-77
17.56667	-77
17.57500	-76
17.58333	-75
17.59167	-74
17.60000	-73
17.60833	-72
17.61667	-71
17.62500	-69
17.63333	-68
17.64167	-66
17.65000	-65
17.65833	-63
17.66667	-61
17.67500	-58
17.68333	-55
17.69167	-52
17.70000	-48
17.70833	-44
17.71667	-39
17.72500	-34
17.73333	-29
17.74167	-23
17.75000	-16
17.75833	-9
17.76667	-1
17.77500	8
17.78333	18
17.79167	28
17.80000	39
17.80833	52
17.81667	66
17.82500	82
17.83333	99
17.84167	118
17.85000	139
17.85833	161
17.86667	186
17.87500	213
17.88333	243
17.89167	277
17.90000	313
17.90833	352
17.91667	396
17.92500	443
17.93333	494
17.94167	548
17.95000	607
17.95833	669
17.96667	736
17.97500	806
17.98333	880
17.99167	958
18.00000	1039
18.00833	1122
18.01667	1208
18.02500	1295
18.03333	1383
18.04167	1472
18.05000	1560
18.05833	1647
18.06667	1732
18.07500	1814
18.08333	1892
18.09167	1965
18.10000	2032
18.10833	2093
18.11667	2147
18.12500	2194
18.13333	2232
18.14167	2262
18.15000	2283
18.15833	2294
18.16667	2297
18.17500	2289
18.18333	2273
18.19167	2248
18.20000	2214
18.20833	2173
18.21667	2125
18.22500	2070
18.23333	2008
18.24167	1942
18.25000	1872
18.25833	1797
18.26667	1720
18.27500	1641
18.28333	1560
18.29167	1479
18.30000	1398
18.30833	1317
18.31667	1237
18.32500	1159
18.33333	1084
18.34167	1010
18.35000	940
18.35833	872
18.36667	808
18.37500	747
18.38333	689
18.39167	634
18.40000	583
18.40833	535
18.41667	490
18.42500	448
18.43333	409
18.44167	373
18.45000	339
18.45833	307
18.46667	279
18.47500	252
18.48333	228
18.49167	206
18.50000	186
18.50833	167
18.51667	150
18.52500	134
18.53333	121
18.54167	108
18.55000	96
18.55833	86
18.56667	76
18.57500	67
18.58333	60
18.59167	53
18.60000	47
18.60833	42
18.61667	37
18.62500	33
18.63333	30
18.64167	28
18.65000	26
18.65833	25
18.66667	25
18.67500	25
18.68333	26
18.69167	28
18.70000	30
18.70833	32
18.71667	36
18.72500	40
18.73333	45
18.74167	51
18.75000	57
18.75833	64
18.76667	71
18.77500	78
18.78333	86
18.79167	95
18.80000	104
18.80833	114
18.81667	123
18.82500	133
18.83333	143
18.84167	152
18.85000	161
18.85833	171
18.86667	179
18.87500	187
18.88333	195
18.89167	202
18.90000	208
18.90833	214
18.91667	219
18.92500	222
18.93333	225
18.94167	227
18.95000	228
18.95833	228
18.96667	227
18.97500	226
18.98333	223
18.99167	219
19.00000	215
19.00833	209
19.01667	203
19.02500	196
19.03333	188
19.04167	180
19.05000	172
19.05833	162
19.06667	153
19.07500	144
19.08333	134
19.09167	124
19.10000	114
19.10833	103
19.11667	93
19.12500	83
19.13333	73
19.14167	63
19.15000	54
19.15833	44
19.16667	36
19.17500	28
19.18333	20
19.19167	12
19.20000	5
19.20833	-2
19.21667	-9
19.22500	-15
19.23333	-21
19.24167	-26
19.25000	-31
19.25833	-36
19.26667	-40
19.27500	-44
19.28333	-47
19.29167	-51
19.30000	-54
19.30833	-57
19.31667	-60
19.32500	-62
19.33333	-64
19.34167	-66
19.35000	-68
19.35833	-69
19.36667	-71
19.37500	-73
19.38333	-74
19.39167	-75
19.40000	-76
19.40833	-77
19.41667	-77
19.42500	-77
19.43333	-77
19.44167	-78
19.45000	-78
19.45833	-78
19.46667	-78
19.47500	-79
19.48333	-79
19.49167	-78
19.50000	-78
19.50833	-78
19.51667	-78
19.52500	-78
19.53333	-78
19.54167	-78
19.55000	-77
19.55833	-77
19.56667	-77
19.57500	-77
19.58333	-78
19.59167	-78
19.60000	-78
19.60833	-78
19.61667	-78
19.62500	-78
19.63333	-77
19.64167	-77
19.65000	-76
19.65833	-76
19.66667	-76
19.67500	-76
19.68333	-76
19.69167	-76
19.70000	-76
19.70833	-76
19.71667	-76
19.72500	-76
19.73333	-76
19.74167	-76
19.75000	-77
19.75833	-77
19.76667	-77
19.77500	-77
19.78333	-77
19.79167	-77
19.80000	-77
19.80833	-77
19.81667	-78
19.82500	-78
19.83333	-79
19.84167	-79
19.85000	-80
19.85833	-80
19.86667	-80
19.87500	-81
19.88333	-81
19.89167	-82
19.90000	-82
19.90833	-82
19.91667	-83
19.92500	-84
19.93333	-84
19.94167	-85
19.95000	-85
19.95833	-85
19.96667	-86
19.97500	-87
19.98333	-87
19.99167	-88
20.00000	-89
20.00833	-89
20.01667	-90
20.02500	-90
20.03333	-91
20.04167	-91
20.05000	-91
20.05833	-91
20.06667	-92
20.07500	-92
20.08333	-93
20.09167	-93
20.10000	-94
20.10833	-94
20.11667	-94
20.12500	-94
20.13333	-94
20.14167	-95
20.15000	-95
20.15833	-95
20.16667	-95
20.17500	-95
20.18333	-95
20.19167	-95
20.20000	-94
20.20833	-94
20.21667	-94
20.22500	-94
20.23333	-94
20.24167	-93
20.25000	-93
20.25833	-93
20.26667	-92
20.27500	-92
20.28333	-91
20.29167	-90
20.30000	-90
20.30833	-90
20.31667	-89
20.32500	-88
20.33333	-87
20.34167	-86
20.35000	-85
20.35833	-84
20.36667	-83
20.37500	-82
20.38333	-81
20.39167	-79
20.40000	-77
20.40833	-75
20.41667	-73
20.42500	-71
20.43333	-69
20.44167	-67
20.45000	-64
20.45833	-62
20.46667	-58
20.47500	-55
20.48333	-52
20.49167	-48
20.50000	-44
20.50833	-40
20.51667	-36
20.52500	-31
20.53333	-26
20.54167	-20
20.55000	-13
20.55833	-6
20.56667	1
20.57500	9
20.58333	18
20.59167	27
20.60000	37
20.60833	47
20.61667	58
20.62500	70
20.63333	83
20.64167	97
20.65000	113
20.65833	129
20.66667	147
20.67500	166
20.68333	186
20.69167	208
20.70000	230
20.70833	255
20.71667	280
20.72500	307
20.73333	335
20.74167	364
20.75000	394
20.75833	425
20.76667	457
20.77500	491
20.78333	526
20.79167	561
20.80000	597
20.80833	633
20.81667	670
20.82500	707
20.83333	744
20.84167	781
20.85000	819
20.85833	855
20.86667	892
20.87500	928
20.88333	963
20.89167	998
20.90000	1032
20.90833	1065
20.91667	1098
20.92500	1129
20.93333	1160
20.94167	1189
20.95000	1218
20.95833	1246
20.96667	1274
20.97500	1301
20.98333	1327
20.99167	1354
21.00000	1380
21.00833	1406
21.01667	1432
21.02500	1459
21.03333	1486
21.04167	1515
21.05000	1545
21.05833	1577
21.06667	1611
21.07500	1647
21.08333	1685
21.09167	1726
21.10000	1771
21.10833	1820
21.11667	1874
21.12500	1932
21.13333	1995
21.14167	2064
21.15000	2139
21.15833	2222
21.16667	2312
21.17500	2410
21.18333	2517
21.19167	2634
21.20000	2761
21.20833	2899
21.21667	3049
21.22500	3211
21.23333	3385
21.24167	3573
21.25000	3775
21.25833	3990
21.26667	4220
21.27500	4464
21.28333	4723
21.29167	4996
21.30000	5283
21.30833	5584
21.31667	5898
21.32500	6224
21.33333	6562
21.34167	6911
21.35000	7268
21.35833	7633
21.36667	8004
21.37500	8379
21.38333	8756
21.39167	9134
21.40000	9509
21.40833	9881
21.41667	10245
21.42500	10601
21.43333	10944
21.44167	11274
21.45000	11587
21.45833	11882
21.46667	12156
21.47500	12409
21.48333	12637
21.49167	12838
21.50000	13012
21.50833	13157
21.51667	13272
21.52500	13357
21.53333	13411
21.54167	13434
21.55000	13427
21.55833	13388
21.56667	13319
21.57500	13221
21.58333	13094
21.59167	12940
21.60000	12759
21.60833	12554
21.61667	12325
21.62500	12076
21.63333	11807
21.64167	11521
21.65000	11219
21.65833	10904
21.66667	10577
21.67500	10242
21.68333	9898
21.69167	9550
21.70000	9197
21.70833	8843
21.71667	8488
21.72500	8134
21.73333	7783
21.74167	7436
21.75000	7094
21.75833	6759
21.76667	6431
21.77500	6110
21.78333	5799
21.79167	5497
21.80000	5206
21.80833	4924
21.81667	4653
21.82500	4393
21.83333	4143
21.84167	3904
21.85000	3676
21.85833	3459
21.86667	3252
21.87500	3055
21.88333	2869
21.89167	2692
21.90000	2525
21.90833	2366
21.91667	2217
21.92500	2075
21.93333	1942
21.94167	1816
21.95000	1697
21.95833	1586
21.96667	1481
21.97500	1382
21.98333	1289
21.99167	1203
22.00000	1121
22.00833	1044
22.01667	972
22.02500	904
22.03333	841
22.04167	781
22.05000	725
22.05833	673
22.06667	624
22.07500	579
22.08333	536
22.09167	496
22.10000	459
22.10833	424
22.11667	392
22.12500	362
22.13333	334
22.14167	308
22.15000	284
22.15833	262
22.16667	241
22.17500	222
22.18333	205
22.19167	189
22.20000	175
22.20833	162
22.21667	150
22.22500	139
22.23333	129
22.24167	120
22.25000	112
22.25833	105
22.26667	99
22.27500	93
22.28333	88
22.29167	84
22.30000	80
22.30833	77
22.31667	74
22.32500	71
22.33333	69
22.34167	67
22.35000	64
22.35833	63
22.36667	61
22.37500	60
22.38333	59
22.39167	58
22.40000	56
22.40833	55
22.41667	53
22.42500	52
22.43333	50
22.44167	48
22.45000	46
22.45833	43
22.46667	40
22.47500	37
22.48333	34
22.49167	31
22.50000	28
22.50833	24
22.51667	20
22.52500	15
22.53333	10
22.54167	5
22.55000	-0
22.55833	-6
22.56667	-13
22.57500	-19
22.58333	-25
22.59167	-32
22.60000	-39
22.60833	-46
22.61667	-53
22.62500	-60
22.63333	-68
22.64167	-75
22.65000	-82
22.65833	-89
22.66667	-96
22.67500	-103
22.68333	-110
22.69167	-117
22.70000	-124
22.70833	-130
22.71667	-137
22.72500	-143
22.73333	-149
22.74167	-155
22.75000	-161
22.75833	-167
22.76667	-172
22.77500	-177
22.78333	-182
22.79167	-186
22.80000	-190
22.80833	-193
22.81667	-196
22.82500	-198
22.83333	-201
22.84167	-203
22.85000	-204
22.85833	-205
22.86667	-206
22.87500	-206
22.88333	-206
22.89167	-206
22.90000	-206
22.90833	-205
22.91667	-204
22.92500	-203
22.93333	-201
22.94167	-199
22.95000	-198
22.95833	-196
22.96667	-194
22.97500	-191
22.98333	-189
22.99167	-186
23.00000	-184
23.00833	-182
23.01667	-179
23.02500	-176
23.03333	-173
23.04167	-170
23.05000	-167
23.05833	-164
23.06667	-162
23.07500	-159
23.08333	-156
23.09167	-153
23.10000	-151
23.10833	-148
23.11667	-146
23.12500	-144
23.13333	-143
23.14167	-141
23.15000	-139
23.15833	-138
23.16667	-136
23.17500	-135
23.18333	-133
23.19167	-132
23.20000	-131
23.20833	-131
23.21667	-130
23.22500	-130
23.23333	-129
23.24167	-129
23.25000	-128
23.25833	-128
23.26667	-128
23.27500	-127
23.28333	-127
23.29167	-127
23.30000	-127
23.30833	-127
23.31667	-128
23.32500	-128
23.33333	-129
23.34167	-130
23.35000	-131
23.35833	-132
23.36667	-132
23.37500	-133
23.38333	-133
23.39167	-134
23.40000	-135
23.40833	-136
23.41667	-137
23.42500	-137
23.43333	-138
23.44167	-138
23.45000	-138
23.45833	-139
23.46667	-140
23.47500	-140
23.48333	-141
23.49167	-141
23.50000	-142
23.50833	-143
23.51667	-143
23.52500	-144
23.53333	-143
23.54167	-143
23.55000	-143
23.55833	-143
23.56667	-143
23.57500	-144
23.58333	-144
23.59167	-144
23.60000	-144
23.60833	-143
23.61667	-143
23.62500	-143
23.63333	-142
23.64167	-142
23.65000	-142
23.65833	-141
23.66667	-141
23.67500	-141
23.68333	-140
23.69167	-140
23.70000	-139
23.70833	-139
23.71667	-139
23.72500	-139
23.73333	-138
23.74167	-139
23.75000	-138
23.75833	-138
23.76667	-137
23.77500	-137
23.78333	-136
23.79167	-135
23.80000	-135
23.80833	-134
23.81667	-133
23.82500	-133
23.83333	-132
23.84167	-132
23.85000	-131
23.85833	-131
23.86667	-130
23.87500	-130
23.88333	-130
23.89167	-130
23.90000	-130
23.90833	-130
23.91667	-130
23.92500	-129
23.93333	-129
23.94167	-128
23.95000	-128
23.95833	-127
23.96667	-127
23.97500	-127
23.98333	-127
23.99167	-127
24.00000	-127
24.00833	-128
24.01667	-128
24.02500	-128
24.03333	-128
24.04167	-127
24.05000	-127
24.05833	-127
24.06667	-127
24.07500	-127
24.08333	-127
24.09167	-127
24.10000	-127
24.10833	-127
24.11667	-127
24.12500	-127
24.13333	-128
24.14167	-128
24.15000	-128
24.15833	-128
24.16667	-129
24.17500	-129
24.18333	-129
24.19167	-130
24.20000	-131
24.20833	-132
24.21667	-133
24.22500	-135
24.23333	-136
24.24167	-137
24.25000	-138
24.25833	-139
24.26667	-141
24.27500	-143
24.28333	-144
24.29167	-145
24.30000	-147
24.30833	-148
24.31667	-150
24.32500	-151
24.33333	-153
24.34167	-154
24.35000	-156
24.35833	-157
24.36667	-159
24.37500	-161
24.38333	-162
24.39167	-163
24.40000	-164
24.40833	-166
24.41667	-167
24.42500	-168
24.43333	-169
24.44167	-171
24.45000	-172
24.45833	-172
24.46667	-173
24.47500	-174
24.48333	-175
24.49167	-176
24.50000	-176
24.50833	-177
24.51667	-177
24.52500	-177
24.53333	-178
24.54167	-178
24.55000	-178
24.55833	-178
24.56667	-178
24.57500	-178
24.58333	-177
24.59167	-178
24.60000	-177
24.60833	-177
24.61667	-176
24.62500	-176
24.63333	-176
24.64167	-175
24.65000	-175
24.65833	-175
24.66667	-174
24.67500	-174
24.68333	-173
24.69167	-172
24.70000	-171
24.70833	-170
24.71667	-169
24.72500	-168
24.73333	-167
24.74167	-167
24.75000	-166
24.75833	-165
24.76667	-164
24.77500	-163
24.78333	-162
24.79167	-161
24.80000	-160
24.80833	-159
24.81667	-159
24.82500	-158
24.83333	-158
24.84167	-158
24.85000	-157
24.85833	-156
24.86667	-156
24.87500	-155
24.88333	-154
24.89167	-153
24.90000	-153
24.90833	-152
24.91667	-152
24.92500	-151
24.93333	-150
24.94167	-150
24.95000	-150
24.95833	-150
24.96667	-149
24.97500	-149
24.98333	-149
24.99167	-149
25.00000	-148
25.00833	-147
25.01667	-147
25.02500	-147
25.03333	-146
25.04167	-146
25.05000	-146
25.05833	-146
25.06667	-145
25.07500	-145
25.08333	-145
25.09167	-145
25.10000	-144
25.10833	-143
25.11667	-143
25.12500	-143
25.13333	-142
25.14167	-142
25.15000	-141
25.15833	-141
25.16667	-141
25.17500	-141
25.18333	-141
25.19167	-140
25.20000	-140
25.20833	-139
25.21667	-138
25.22500	-138
25.23333	-138
25.24167	-137
25.25000	-137
25.25833	-137
25.26667	-136
25.27500	-136
25.28333	-135
25.29167	-135
25.30000	-134
25.30833	-134
25.31667	-133
25.32500	-133
25.33333	-132
25.34167	-131
25.35000	-130
25.35833	-130
25.36667	-129
25.37500	-129
25.38333	-128
25.39167	-128
25.40000	-128
25.40833	-128
25.41667	-127
25.42500	-126
25.43333	-126
25.44167	-125
25.45000	-124
25.45833	-123
25.46667	-122
25.47500	-122
25.48333	-121
25.49167	-121
25.50000	-120
25.50833	-120
25.51667	-119
25.52500	-118
25.53333	-117
25.54167	-117
25.55000	-115
25.55833	-114
25.56667	-112
25.57500	-111
25.58333	-110
25.59167	-110
25.60000	-108
25.60833	-107
25.61667	-106
25.62500	-104
25.63333	-103
25.64167	-102
25.65000	-100
25.65833	-100
25.66667	-99
25.67500	-98
25.68333	-97
25.69167	-96
25.70000	-95
25.70833	-94
25.71667	-93
25.72500	-92
25.73333	-91
25.74167	-90
25.75000	-88
25.75833	-87
25.76667	-86
25.77500	-85
25.78333	-84
25.79167	-82
25.80000	-81
25.80833	-80
25.81667	-79
25.82500	-78
25.83333	-77
25.84167	-76
25.85000	-74
25.85833	-73
25.86667	-72
25.87500	-70
25.88333	-68
25.89167	-67
25.90000	-65
25.90833	-63
25.91667	-60
25.92500	-59
25.93333	-57
25.94167	-54
25.95000	-52
25.95833	-50
25.96667	-47
25.97500	-45
25.98333	-42
25.99167	-39
26.00000	-36
26.00833	-32
26.01667	-29
26.02500	-25
26.03333	-21
26.04167	-17
26.05000	-13
26.05833	-8
26.06667	-3
26.07500	2
26.08333	8
26.09167	15
26.10000	21
26.10833	28
26.11667	36
26.12500	43
26.13333	51
26.14167	60
26.15000	69
26.15833	78
26.16667	88
26.17500	98
26.18333	109
26.19167	120
26.20000	133
26.20833	145
26.21667	158
26.22500	172
26.23333	187
26.24167	202
26.25000	219
26.25833	236
26.26667	254
26.27500	272
26.28333	291
26.29167	310
26.30000	330
26.30833	351
26.31667	372
26.32500	394
26.33333	417
26.34167	439
26.35000	463
26.35833	486
26.36667	510
26.37500	534
26.38333	558
26.39167	582
26.40000	606
26.40833	629
26.41667	653
26.42500	675
26.43333	698
26.44167	719
26.45000	740
26.45833	761
26.46667	780
26.47500	799
26.48333	817
26.49167	833
26.50000	847
26.50833	860
26.51667	872
26.52500	882
26.53333	890
26.54167	897
26.55000	902
26.55833	905
26.56667	907
26.57500	907
26.58333	906
26.59167	904
26.60000	899
26.60833	893
26.61667	884
26.62500	874
26.63333	864
26.64167	852
26.65000	839
26.65833	824
26.66667	809
26.67500	792
26.68333	774
26.69167	755
26.70000	735
26.70833	716
26.71667	695
26.72500	674
26.73333	653
26.74167	632
26.75000	611
26.75833	589
26.76667	567
26.77500	546
26.78333	524
26.79167	503
26.80000	482
26.80833	462
26.81667	442
26.82500	422
26.83333	403
26.84167	384
26.85000	366
26.85833	349
26.86667	332
26.87500	316
26.88333	300
26.89167	285
26.90000	271
26.90833	257
26.91667	243
26.92500	230
26.93333	218
26.94167	206
26.95000	195
26.95833	184
26.96667	174
26.97500	164
26.98333	155
26.99167	146
27.00000	137
27.00833	129
27.01667	121
27.02500	113
27.03333	106
27.04167	99
27.05000	93
27.05833	86
27.06667	80
27.07500	74
27.08333	67
27.09167	62
27.10000	56
27.10833	51
27.11667	47
27.12500	42
27.13333	38
27.14167	33
27.15000	29
27.15833	25
27.16667	20
27.17500	16
27.18333	12
27.19167	8
27.20000	4
27.20833	1
27.21667	-3
27.22500	-7
27.23333	-10
27.24167	-13
27.25000	-16
27.25833	-20
27.26667	-23
27.27500	-26
27.28333	-29
27.29167	-32
27.30000	-34
27.30833	-37
27.31667	-40
27.32500	-43
27.33333	-45
27.34167	-47
27.35000	-50
27.35833	-52
27.36667	-54
27.37500	-56
27.38333	-58
27.39167	-60
27.40000	-62
27.40833	-64
27.41667	-66
27.42500	-68
27.43333	-70
27.44167	-71
27.45000	-72
27.45833	-74
27.46667	-75
27.47500	-77
27.48333	-78
27.49167	-80
27.50000	-81
27.50833	-82
27.51667	-82
27.52500	-83
27.53333	-84
27.54167	-85
27.55000	-86
27.55833	-87
27.56667	-88
27.57500	-89
27.58333	-89
27.59167	-90
27.60000	-90
27.60833	-91
27.61667	-92
27.62500	-92
27.63333	-92
27.64167	-93
27.65000	-93
27.65833	-93
27.66667	-94
27.67500	-94
27.68333	-94
27.69167	-94
27.70000	-94
27.70833	-94
27.71667	-94
27.72500	-95
27.73333	-95
27.74167	-95
27.75000	-95
27.75833	-95
27.76667	-95
27.77500	-95
27.78333	-95
27.79167	-95
27.80000	-95
27.80833	-95
27.81667	-96
27.82500	-96
27.83333	-96
27.84167	-96
27.85000	-95
27.85833	-95
27.86667	-95
27.87500	-95
27.88333	-95
27.89167	-95
27.90000	-95
27.90833	-95
27.91667	-95
27.92500	-95
27.93333	-96
27.94167	-96
27.95000	-96
27.95833	-95
27.96667	-95
27.97500	-96
27.98333	-96
27.99167	-96
28.00000	-96

