R.Time (min)	Intensity
0.00000	-10
0.00833	-10
0.01667	-0
0.02500	-0
0.03333	0
0.04167	0
0.05000	-0
0.05833	-0
0.06667	-1
0.07500	-1
0.08333	-1
0.09167	-1
0.10000	-1
0.10833	-1
0.11667	-1
0.12500	-1
0.13333	-1
0.14167	-1
0.15000	-1
0.15833	-1
0.16667	-2
0.17500	-2
0.18333	-3
0.19167	-3
0.20000	-4
0.20833	-4
0.21667	-4
0.22500	-4
0.23333	-4
0.24167	-5
0.25000	-5
0.25833	-5
0.26667	-5
0.27500	-5
0.28333	-6
0.29167	-6
0.30000	-6
0.30833	-7
0.31667	-7
0.32500	-8
0.33333	-8
0.34167	-9
0.35000	-9
0.35833	-9
0.36667	-9
0.37500	-10
0.38333	-10
0.39167	-11
0.40000	-11
0.40833	-11
0.41667	-11
0.42500	-11
0.43333	-11
0.44167	-11
0.45000	-12
0.45833	-12
0.46667	-12
0.47500	-13
0.48333	-13
0.49167	-13
0.50000	-14
0.50833	-14
0.51667	-14
0.52500	-15
0.53333	-15
0.54167	-16
0.55000	-16
0.55833	-17
0.56667	-17
0.57500	-17
0.58333	-16
0.59167	-16
0.60000	-16
0.60833	-17
0.61667	-17
0.62500	-17
0.63333	-17
0.64167	-17
0.65000	-17
0.65833	-17
0.66667	-17
0.67500	-17
0.68333	-17
0.69167	-16
0.70000	-17
0.70833	-17
0.71667	-17
0.72500	-18
0.73333	-18
0.74167	-18
0.75000	-18
0.75833	-17
0.76667	-17
0.77500	-18
0.78333	-18
0.79167	-18
0.80000	-18
0.80833	-18
0.81667	-18
0.82500	-18
0.83333	-18
0.84167	-18
0.85000	-18
0.85833	-18
0.86667	-19
0.87500	-19
0.88333	-19
0.89167	-19
0.90000	-19
0.90833	-19
0.91667	-19
0.92500	-19
0.93333	-19
0.94167	-20
0.95000	-20
0.95833	-20
0.96667	-20
0.97500	-20
0.98333	-20
0.99167	-20
1.00000	-20
1.00833	-20
1.01667	-20
1.02500	-20
1.03333	-20
1.04167	-21
1.05000	-21
1.05833	-21
1.06667	-21
1.07500	-20
1.08333	-20
1.09167	-21
1.10000	-21
1.10833	-21
1.11667	-21
1.12500	-21
1.13333	-21
1.14167	-21
1.15000	-21
1.15833	-21
1.16667	-21
1.17500	-22
1.18333	-22
1.19167	-23
1.20000	-23
1.20833	-23
1.21667	-23
1.22500	-23
1.23333	-23
1.24167	-24
1.25000	-24
1.25833	-24
1.26667	-25
1.27500	-25
1.28333	-25
1.29167	-24
1.30000	-25
1.30833	-25
1.31667	-24
1.32500	-24
1.33333	-24
1.34167	-24
1.35000	-24
1.35833	-24
1.36667	-24
1.37500	-23
1.38333	-23
1.39167	-23
1.40000	-23
1.40833	-23
1.41667	-23
1.42500	-23
1.43333	-23
1.44167	-23
1.45000	-24
1.45833	-24
1.46667	-24
1.47500	-25
1.48333	-25
1.49167	-25
1.50000	-25
1.50833	-25
1.51667	-25
1.52500	-25
1.53333	-25
1.54167	-25
1.55000	-25
1.55833	-25
1.56667	-25
1.57500	-25
1.58333	-25
1.59167	-26
1.60000	-26
1.60833	-26
1.61667	-26
1.62500	-26
1.63333	-26
1.64167	-27
1.65000	-27
1.65833	-27
1.66667	-27
1.67500	-27
1.68333	-27
1.69167	-27
1.70000	-27
1.70833	-27
1.71667	-27
1.72500	-27
1.73333	-27
1.74167	-27
1.75000	-28
1.75833	-28
1.76667	-28
1.77500	-28
1.78333	-28
1.79167	-28
1.80000	-28
1.80833	-28
1.81667	-28
1.82500	-28
1.83333	-28
1.84167	-28
1.85000	-28
1.85833	-28
1.86667	-29
1.87500	-29
1.88333	-29
1.89167	-29
1.90000	-29
1.90833	-29
1.91667	-29
1.92500	-29
1.93333	-29
1.94167	-29
1.95000	-30
1.95833	-30
1.96667	-30
1.97500	-29
1.98333	-29
1.99167	-29
2.00000	-29
2.00833	-29
2.01667	-29
2.02500	-29
2.03333	-29
2.04167	-29
2.05000	-28
2.05833	-28
2.06667	-28
2.07500	-29
2.08333	-28
2.09167	-28
2.10000	-27
2.10833	-27
2.11667	-26
2.12500	-26
2.13333	-26
2.14167	-25
2.15000	-25
2.15833	-25
2.16667	-25
2.17500	-24
2.18333	-24
2.19167	-23
2.20000	-23
2.20833	-23
2.21667	-22
2.22500	-22
2.23333	-21
2.24167	-21
2.25000	-21
2.25833	-21
2.26667	-20
2.27500	-20
2.28333	-19
2.29167	-19
2.30000	-18
2.30833	-17
2.31667	-16
2.32500	-15
2.33333	-14
2.34167	-13
2.35000	-12
2.35833	-11
2.36667	-9
2.37500	-8
2.38333	-7
2.39167	-6
2.40000	-4
2.40833	-3
2.41667	-1
2.42500	1
2.43333	4
2.44167	6
2.45000	8
2.45833	11
2.46667	13
2.47500	16
2.48333	19
2.49167	22
2.50000	25
2.50833	29
2.51667	32
2.52500	36
2.53333	40
2.54167	44
2.55000	49
2.55833	54
2.56667	59
2.57500	64
2.58333	70
2.59167	76
2.60000	82
2.60833	88
2.61667	95
2.62500	103
2.63333	111
2.64167	119
2.65000	128
2.65833	137
2.66667	147
2.67500	157
2.68333	167
2.69167	179
2.70000	190
2.70833	203
2.71667	216
2.72500	229
2.73333	244
2.74167	259
2.75000	275
2.75833	292
2.76667	310
2.77500	329
2.78333	349
2.79167	369
2.80000	391
2.80833	414
2.81667	438
2.82500	463
2.83333	490
2.84167	518
2.85000	548
2.85833	579
2.86667	611
2.87500	646
2.88333	682
2.89167	719
2.90000	759
2.90833	800
2.91667	844
2.92500	889
2.93333	937
2.94167	987
2.95000	1039
2.95833	1093
2.96667	1150
2.97500	1209
2.98333	1271
2.99167	1334
3.00000	1401
3.00833	1470
3.01667	1541
3.02500	1615
3.03333	1691
3.04167	1769
3.05000	1850
3.05833	1933
3.06667	2018
3.07500	2106
3.08333	2195
3.09167	2286
3.10000	2378
3.10833	2472
3.11667	2567
3.12500	2662
3.13333	2759
3.14167	2857
3.15000	2954
3.15833	3052
3.16667	3150
3.17500	3247
3.18333	3343
3.19167	3438
3.20000	3532
3.20833	3624
3.21667	3714
3.22500	3801
3.23333	3885
3.24167	3966
3.25000	4043
3.25833	4117
3.26667	4187
3.27500	4253
3.28333	4314
3.29167	4370
3.30000	4420
3.30833	4466
3.31667	4505
3.32500	4539
3.33333	4567
3.34167	4588
3.35000	4604
3.35833	4614
3.36667	4618
3.37500	4615
3.38333	4607
3.39167	4592
3.40000	4571
3.40833	4544
3.41667	4512
3.42500	4474
3.43333	4430
3.44167	4380
3.45000	4326
3.45833	4266
3.46667	4202
3.47500	4134
3.48333	4061
3.49167	3985
3.50000	3906
3.50833	3823
3.51667	3737
3.52500	3648
3.53333	3558
3.54167	3465
3.55000	3371
3.55833	3276
3.56667	3180
3.57500	3083
3.58333	2986
3.59167	2888
3.60000	2791
3.60833	2694
3.61667	2598
3.62500	2503
3.63333	2409
3.64167	2316
3.65000	2224
3.65833	2134
3.66667	2045
3.67500	1959
3.68333	1875
3.69167	1792
3.70000	1713
3.70833	1635
3.71667	1560
3.72500	1487
3.73333	1417
3.74167	1349
3.75000	1283
3.75833	1220
3.76667	1159
3.77500	1101
3.78333	1046
3.79167	993
3.80000	942
3.80833	895
3.81667	849
3.82500	806
3.83333	765
3.84167	726
3.85000	689
3.85833	653
3.86667	620
3.87500	589
3.88333	559
3.89167	531
3.90000	505
3.90833	481
3.91667	458
3.92500	436
3.93333	416
3.94167	398
3.95000	380
3.95833	363
3.96667	348
3.97500	333
3.98333	319
3.99167	306
4.00000	294
4.00833	283
4.01667	272
4.02500	262
4.03333	253
4.04167	244
4.05000	236
4.05833	229
4.06667	221
4.07500	214
4.08333	207
4.09167	201
4.10000	195
4.10833	189
4.11667	183
4.12500	178
4.13333	172
4.14167	167
4.15000	163
4.15833	158
4.16667	153
4.17500	148
4.18333	143
4.19167	139
4.20000	135
4.20833	131
4.21667	126
4.22500	122
4.23333	118
4.24167	113
4.25000	109
4.25833	105
4.26667	101
4.27500	96
4.28333	93
4.29167	89
4.30000	85
4.30833	81
4.31667	77
4.32500	73
4.33333	69
4.34167	65
4.35000	62
4.35833	58
4.36667	54
4.37500	51
4.38333	48
4.39167	45
4.40000	41
4.40833	38
4.41667	35
4.42500	32
4.43333	29
4.44167	27
4.45000	24
4.45833	21
4.46667	19
4.47500	16
4.48333	14
4.49167	12
4.50000	10
4.50833	8
4.51667	6
4.52500	3
4.53333	1
4.54167	-1
4.55000	-2
4.55833	-4
4.56667	-5
4.57500	-7
4.58333	-9
4.59167	-10
4.60000	-12
4.60833	-13
4.61667	-14
4.62500	-15
4.63333	-16
4.64167	-17
4.65000	-18
4.65833	-18
4.66667	-19
4.67500	-20
4.68333	-20
4.69167	-21
4.70000	-22
4.70833	-22
4.71667	-23
4.72500	-23
4.73333	-23
4.74167	-23
4.75000	-23
4.75833	-24
4.76667	-24
4.77500	-24
4.78333	-24
4.79167	-24
4.80000	-25
4.80833	-25
4.81667	-25
4.82500	-25
4.83333	-25
4.84167	-25
4.85000	-25
4.85833	-25
4.86667	-25
4.87500	-25
4.88333	-25
4.89167	-25
4.90000	-25
4.90833	-25
4.91667	-25
4.92500	-24
4.93333	-24
4.94167	-23
4.95000	-23
4.95833	-23
4.96667	-23
4.97500	-22
4.98333	-22
4.99167	-22
5.00000	-22
5.00833	-22
5.01667	-21
5.02500	-21
5.03333	-22
5.04167	-22
5.05000	-22
5.05833	-21
5.06667	-21
5.07500	-21
5.08333	-21
5.09167	-21
5.10000	-20
5.10833	-20
5.11667	-20
5.12500	-19
5.13333	-19
5.14167	-19
5.15000	-19
5.15833	-18
5.16667	-18
5.17500	-18
5.18333	-17
5.19167	-17
5.20000	-17
5.20833	-17
5.21667	-17
5.22500	-18
5.23333	-18
5.24167	-18
5.25000	-18
5.25833	-18
5.26667	-18
5.27500	-18
5.28333	-18
5.29167	-18
5.30000	-18
5.30833	-17
5.31667	-17
5.32500	-17
5.33333	-17
5.34167	-17
5.35000	-17
5.35833	-17
5.36667	-17
5.37500	-17
5.38333	-17
5.39167	-16
5.40000	-16
5.40833	-16
5.41667	-17
5.42500	-17
5.43333	-18
5.44167	-18
5.45000	-18
5.45833	-18
5.46667	-18
5.47500	-18
5.48333	-18
5.49167	-18
5.50000	-17
5.50833	-17
5.51667	-17
5.52500	-17
5.53333	-17
5.54167	-17
5.55000	-17
5.55833	-18
5.56667	-18
5.57500	-19
5.58333	-19
5.59167	-19
5.60000	-19
5.60833	-19
5.61667	-20
5.62500	-20
5.63333	-19
5.64167	-19
5.65000	-19
5.65833	-20
5.66667	-20
5.67500	-19
5.68333	-19
5.69167	-19
5.70000	-19
5.70833	-19
5.71667	-19
5.72500	-19
5.73333	-19
5.74167	-19
5.75000	-18
5.75833	-18
5.76667	-18
5.77500	-17
5.78333	-17
5.79167	-18
5.80000	-18
5.80833	-19
5.81667	-19
5.82500	-18
5.83333	-18
5.84167	-18
5.85000	-18
5.85833	-18
5.86667	-18
5.87500	-18
5.88333	-18
5.89167	-18
5.90000	-18
5.90833	-18
5.91667	-18
5.92500	-17
5.93333	-17
5.94167	-16
5.95000	-16
5.95833	-16
5.96667	-16
5.97500	-16
5.98333	-16
5.99167	-16
6.00000	-16
6.00833	-16
6.01667	-16
6.02500	-15
6.03333	-15
6.04167	-15
6.05000	-15
6.05833	-15
6.06667	-14
6.07500	-14
6.08333	-14
6.09167	-14
6.10000	-13
6.10833	-13
6.11667	-13
6.12500	-12
6.13333	-12
6.14167	-12
6.15000	-12
6.15833	-12
6.16667	-12
6.17500	-12
6.18333	-11
6.19167	-11
6.20000	-11
6.20833	-11
6.21667	-10
6.22500	-10
6.23333	-10
6.24167	-10
6.25000	-9
6.25833	-9
6.26667	-9
6.27500	-10
6.28333	-9
6.29167	-9
6.30000	-9
6.30833	-9
6.31667	-9
6.32500	-9
6.33333	-8
6.34167	-8
6.35000	-8
6.35833	-8
6.36667	-7
6.37500	-7
6.38333	-7
6.39167	-6
6.40000	-6
6.40833	-6
6.41667	-6
6.42500	-6
6.43333	-6
6.44167	-6
6.45000	-5
6.45833	-5
6.46667	-5
6.47500	-5
6.48333	-5
6.49167	-5
6.50000	-5
6.50833	-5
6.51667	-5
6.52500	-5
6.53333	-4
6.54167	-4
6.55000	-4
6.55833	-4
6.56667	-4
6.57500	-5
6.58333	-5
6.59167	-5
6.60000	-5
6.60833	-5
6.61667	-5
6.62500	-5
6.63333	-5
6.64167	-5
6.65000	-6
6.65833	-6
6.66667	-5
6.67500	-5
6.68333	-5
6.69167	-6
6.70000	-6
6.70833	-6
6.71667	-6
6.72500	-6
6.73333	-6
6.74167	-6
6.75000	-6
6.75833	-6
6.76667	-6
6.77500	-6
6.78333	-6
6.79167	-6
6.80000	-6
6.80833	-5
6.81667	-5
6.82500	-5
6.83333	-5
6.84167	-5
6.85000	-5
6.85833	-5
6.86667	-5
6.87500	-5
6.88333	-5
6.89167	-5
6.90000	-5
6.90833	-4
6.91667	-4
6.92500	-3
6.93333	-3
6.94167	-3
6.95000	-2
6.95833	-2
6.96667	-2
6.97500	-2
6.98333	-1
6.99167	-1
7.00000	0
7.00833	1
7.01667	3
7.02500	4
7.03333	6
7.04167	8
7.05000	10
7.05833	12
7.06667	15
7.07500	18
7.08333	21
7.09167	26
7.10000	31
7.10833	36
7.11667	42
7.12500	50
7.13333	58
7.14167	67
7.15000	78
7.15833	89
7.16667	102
7.17500	115
7.18333	129
7.19167	145
7.20000	162
7.20833	180
7.21667	199
7.22500	219
7.23333	240
7.24167	262
7.25000	284
7.25833	305
7.26667	326
7.27500	344
7.28333	360
7.29167	371
7.30000	377
7.30833	375
7.31667	365
7.32500	347
7.33333	322
7.34167	295
7.35000	270
7.35833	258
7.36667	271
7.37500	324
7.38333	434
7.39167	621
7.40000	905
7.40833	1305
7.41667	1838
7.42500	2519
7.43333	3358
7.44167	4360
7.45000	5523
7.45833	6837
7.46667	8281
7.47500	9828
7.48333	11437
7.49167	13058
7.50000	14631
7.50833	16090
7.51667	17369
7.52500	18403
7.53333	19139
7.54167	19540
7.55000	19586
7.55833	19284
7.56667	18660
7.57500	17759
7.58333	16639
7.59167	15364
7.60000	14001
7.60833	12610
7.61667	11244
7.62500	9943
7.63333	8739
7.64167	7648
7.65000	6681
7.65833	5836
7.66667	5110
7.67500	4491
7.68333	3969
7.69167	3532
7.70000	3165
7.70833	2857
7.71667	2598
7.72500	2379
7.73333	2192
7.74167	2030
7.75000	1890
7.75833	1766
7.76667	1656
7.77500	1558
7.78333	1468
7.79167	1386
7.80000	1310
7.80833	1241
7.81667	1175
7.82500	1115
7.83333	1058
7.84167	1004
7.85000	953
7.85833	904
7.86667	859
7.87500	816
7.88333	776
7.89167	737
7.90000	700
7.90833	666
7.91667	633
7.92500	603
7.93333	575
7.94167	549
7.95000	525
7.95833	503
7.96667	483
7.97500	465
7.98333	449
7.99167	435
8.00000	423
8.00833	412
8.01667	402
8.02500	393
8.03333	385
8.04167	377
8.05000	371
8.05833	365
8.06667	358
8.07500	353
8.08333	347
8.09167	341
8.10000	335
8.10833	330
8.11667	325
8.12500	320
8.13333	315
8.14167	310
8.15000	305
8.15833	301
8.16667	296
8.17500	292
8.18333	288
8.19167	285
8.20000	282
8.20833	279
8.21667	276
8.22500	274
8.23333	272
8.24167	270
8.25000	268
8.25833	266
8.26667	264
8.27500	262
8.28333	261
8.29167	260
8.30000	260
8.30833	259
8.31667	259
8.32500	258
8.33333	258
8.34167	257
8.35000	257
8.35833	256
8.36667	256
8.37500	257
8.38333	257
8.39167	257
8.40000	257
8.40833	257
8.41667	257
8.42500	258
8.43333	258
8.44167	259
8.45000	259
8.45833	259
8.46667	259
8.47500	260
8.48333	260
8.49167	260
8.50000	259
8.50833	259
8.51667	258
8.52500	257
8.53333	255
8.54167	253
8.55000	252
8.55833	250
8.56667	248
8.57500	245
8.58333	243
8.59167	241
8.60000	238
8.60833	236
8.61667	234
8.62500	233
8.63333	231
8.64167	229
8.65000	227
8.65833	226
8.66667	225
8.67500	224
8.68333	223
8.69167	223
8.70000	223
8.70833	223
8.71667	224
8.72500	224
8.73333	224
8.74167	225
8.75000	226
8.75833	228
8.76667	230
8.77500	232
8.78333	235
8.79167	238
8.80000	242
8.80833	247
8.81667	252
8.82500	259
8.83333	267
8.84167	277
8.85000	287
8.85833	300
8.86667	315
8.87500	333
8.88333	354
8.89167	380
8.90000	411
8.90833	448
8.91667	491
8.92500	542
8.93333	601
8.94167	669
8.95000	746
8.95833	832
8.96667	928
8.97500	1032
8.98333	1144
8.99167	1263
9.00000	1386
9.00833	1513
9.01667	1641
9.02500	1768
9.03333	1891
9.04167	2008
9.05000	2116
9.05833	2212
9.06667	2296
9.07500	2364
9.08333	2416
9.09167	2450
9.10000	2467
9.10833	2466
9.11667	2449
9.12500	2415
9.13333	2366
9.14167	2304
9.15000	2231
9.15833	2147
9.16667	2056
9.17500	1960
9.18333	1860
9.19167	1758
9.20000	1656
9.20833	1555
9.21667	1457
9.22500	1363
9.23333	1272
9.24167	1186
9.25000	1106
9.25833	1031
9.26667	962
9.27500	899
9.28333	841
9.29167	788
9.30000	741
9.30833	698
9.31667	661
9.32500	627
9.33333	599
9.34167	574
9.35000	552
9.35833	535
9.36667	522
9.37500	512
9.38333	507
9.39167	506
9.40000	509
9.40833	517
9.41667	530
9.42500	551
9.43333	578
9.44167	614
9.45000	661
9.45833	720
9.46667	795
9.47500	888
9.48333	1003
9.49167	1145
9.50000	1316
9.50833	1524
9.51667	1771
9.52500	2065
9.53333	2409
9.54167	2809
9.55000	3270
9.55833	3794
9.56667	4384
9.57500	5040
9.58333	5762
9.59167	6546
9.60000	7388
9.60833	8280
9.61667	9213
9.62500	10177
9.63333	11159
9.64167	12143
9.65000	13116
9.65833	14062
9.66667	14965
9.67500	15810
9.68333	16584
9.69167	17274
9.70000	17872
9.70833	18370
9.71667	18763
9.72500	19050
9.73333	19232
9.74167	19311
9.75000	19296
9.75833	19193
9.76667	19014
9.77500	18770
9.78333	18474
9.79167	18140
9.80000	17780
9.80833	17407
9.81667	17033
9.82500	16670
9.83333	16327
9.84167	16013
9.85000	15736
9.85833	15502
9.86667	15315
9.87500	15179
9.88333	15096
9.89167	15066
9.90000	15090
9.90833	15166
9.91667	15295
9.92500	15473
9.93333	15699
9.94167	15968
9.95000	16279
9.95833	16629
9.96667	17013
9.97500	17429
9.98333	17873
9.99167	18341
10.00000	18831
10.00833	19340
10.01667	19862
10.02500	20393
10.03333	20930
10.04167	21463
10.05000	21984
10.05833	22477
10.06667	22921
10.07500	23289
10.08333	23546
10.09167	23654
10.10000	23574
10.10833	23274
10.11667	22731
10.12500	21940
10.13333	20911
10.14167	19675
10.15000	18276
10.15833	16767
10.16667	15205
10.17500	13643
10.18333	12128
10.19167	10696
10.20000	9374
10.20833	8176
10.21667	7109
10.22500	6173
10.23333	5360
10.24167	4662
10.25000	4067
10.25833	3562
10.26667	3136
10.27500	2778
10.28333	2476
10.29167	2221
10.30000	2006
10.30833	1823
10.31667	1667
10.32500	1533
10.33333	1417
10.34167	1315
10.35000	1226
10.35833	1147
10.36667	1076
10.37500	1013
10.38333	955
10.39167	903
10.40000	854
10.40833	810
10.41667	769
10.42500	732
10.43333	697
10.44167	666
10.45000	638
10.45833	612
10.46667	589
10.47500	569
10.48333	552
10.49167	539
10.50000	528
10.50833	521
10.51667	518
10.52500	518
10.53333	521
10.54167	529
10.55000	541
10.55833	557
10.56667	578
10.57500	604
10.58333	635
10.59167	672
10.60000	716
10.60833	768
10.61667	828
10.62500	898
10.63333	980
10.64167	1075
10.65000	1187
10.65833	1318
10.66667	1473
10.67500	1656
10.68333	1874
10.69167	2133
10.70000	2441
10.70833	2809
10.71667	3247
10.72500	3768
10.73333	4384
10.74167	5109
10.75000	5958
10.75833	6945
10.76667	8085
10.77500	9390
10.78333	10870
10.79167	12530
10.80000	14373
10.80833	16398
10.81667	18594
10.82500	20947
10.83333	23436
10.84167	26033
10.85000	28703
10.85833	31406
10.86667	34098
10.87500	36729
10.88333	39250
10.89167	41612
10.90000	43765
10.90833	45667
10.91667	47277
10.92500	48564
10.93333	49504
10.94167	50082
10.95000	50292
10.95833	50137
10.96667	49629
10.97500	48789
10.98333	47643
10.99167	46225
11.00000	44571
11.00833	42720
11.01667	40713
11.02500	38592
11.03333	36395
11.04167	34160
11.05000	31918
11.05833	29700
11.06667	27533
11.07500	25437
11.08333	23428
11.09167	21521
11.10000	19725
11.10833	18044
11.11667	16483
11.12500	15040
11.13333	13714
11.14167	12501
11.15000	11395
11.15833	10391
11.16667	9482
11.17500	8661
11.18333	7920
11.19167	7253
11.20000	6653
11.20833	6112
11.21667	5624
11.22500	5185
11.23333	4788
11.24167	4430
11.25000	4104
11.25833	3809
11.26667	3539
11.27500	3293
11.28333	3067
11.29167	2859
11.30000	2668
11.30833	2491
11.31667	2327
11.32500	2175
11.33333	2033
11.34167	1902
11.35000	1779
11.35833	1665
11.36667	1559
11.37500	1460
11.38333	1367
11.39167	1281
11.40000	1201
11.40833	1126
11.41667	1057
11.42500	993
11.43333	934
11.44167	880
11.45000	831
11.45833	786
11.46667	745
11.47500	708
11.48333	675
11.49167	645
11.50000	618
11.50833	594
11.51667	572
11.52500	553
11.53333	536
11.54167	521
11.55000	507
11.55833	494
11.56667	483
11.57500	472
11.58333	463
11.59167	454
11.60000	445
11.60833	436
11.61667	428
11.62500	420
11.63333	413
11.64167	406
11.65000	399
11.65833	392
11.66667	387
11.67500	382
11.68333	377
11.69167	374
11.70000	370
11.70833	367
11.71667	365
11.72500	363
11.73333	361
11.74167	360
11.75000	359
11.75833	359
11.76667	360
11.77500	360
11.78333	359
11.79167	358
11.80000	357
11.80833	355
11.81667	352
11.82500	348
11.83333	344
11.84167	339
11.85000	333
11.85833	327
11.86667	319
11.87500	312
11.88333	304
11.89167	295
11.90000	285
11.90833	276
11.91667	267
11.92500	258
11.93333	250
11.94167	241
11.95000	233
11.95833	226
11.96667	218
11.97500	211
11.98333	205
11.99167	199
12.00000	194
12.00833	189
12.01667	185
12.02500	181
12.03333	178
12.04167	175
12.05000	173
12.05833	171
12.06667	169
12.07500	168
12.08333	166
12.09167	165
12.10000	164
12.10833	163
12.11667	162
12.12500	161
12.13333	160
12.14167	158
12.15000	156
12.15833	155
12.16667	153
12.17500	151
12.18333	149
12.19167	147
12.20000	145
12.20833	143
12.21667	141
12.22500	138
12.23333	136
12.24167	133
12.25000	131
12.25833	129
12.26667	127
12.27500	125
12.28333	122
12.29167	120
12.30000	117
12.30833	115
12.31667	113
12.32500	112
12.33333	110
12.34167	109
12.35000	106
12.35833	105
12.36667	103
12.37500	101
12.38333	100
12.39167	98
12.40000	97
12.40833	96
12.41667	95
12.42500	94
12.43333	93
12.44167	92
12.45000	91
12.45833	90
12.46667	89
12.47500	89
12.48333	89
12.49167	88
12.50000	88
12.50833	88
12.51667	88
12.52500	87
12.53333	87
12.54167	87
12.55000	87
12.55833	88
12.56667	89
12.57500	90
12.58333	90
12.59167	91
12.60000	92
12.60833	93
12.61667	94
12.62500	95
12.63333	96
12.64167	97
12.65000	98
12.65833	99
12.66667	101
12.67500	102
12.68333	103
12.69167	104
12.70000	105
12.70833	106
12.71667	107
12.72500	109
12.73333	110
12.74167	111
12.75000	112
12.75833	113
12.76667	113
12.77500	114
12.78333	114
12.79167	115
12.80000	116
12.80833	117
12.81667	118
12.82500	119
12.83333	120
12.84167	121
12.85000	122
12.85833	123
12.86667	123
12.87500	124
12.88333	125
12.89167	127
12.90000	129
12.90833	131
12.91667	133
12.92500	135
12.93333	137
12.94167	140
12.95000	142
12.95833	144
12.96667	147
12.97500	149
12.98333	151
12.99167	153
13.00000	156
13.00833	158
13.01667	160
13.02500	162
13.03333	164
13.04167	165
13.05000	166
13.05833	167
13.06667	168
13.07500	168
13.08333	168
13.09167	168
13.10000	168
13.10833	167
13.11667	166
13.12500	165
13.13333	163
13.14167	162
13.15000	160
13.15833	158
13.16667	156
13.17500	153
13.18333	151
13.19167	149
13.20000	147
13.20833	146
13.21667	144
13.22500	143
13.23333	142
13.24167	141
13.25000	140
13.25833	139
13.26667	138
13.27500	138
13.28333	138
13.29167	138
13.30000	139
13.30833	140
13.31667	141
13.32500	143
13.33333	145
13.34167	146
13.35000	149
13.35833	152
13.36667	155
13.37500	158
13.38333	161
13.39167	165
13.40000	169
13.40833	174
13.41667	179
13.42500	184
13.43333	189
13.44167	195
13.45000	201
13.45833	207
13.46667	213
13.47500	220
13.48333	226
13.49167	233
13.50000	240
13.50833	246
13.51667	253
13.52500	259
13.53333	265
13.54167	271
13.55000	276
13.55833	282
13.56667	286
13.57500	291
13.58333	296
13.59167	301
13.60000	305
13.60833	310
13.61667	314
13.62500	319
13.63333	323
13.64167	327
13.65000	331
13.65833	334
13.66667	338
13.67500	342
13.68333	345
13.69167	349
13.70000	352
13.70833	356
13.71667	359
13.72500	362
13.73333	365
13.74167	367
13.75000	370
13.75833	372
13.76667	374
13.77500	375
13.78333	377
13.79167	379
13.80000	381
13.80833	383
13.81667	386
13.82500	388
13.83333	391
13.84167	395
13.85000	400
13.85833	404
13.86667	409
13.87500	415
13.88333	421
13.89167	428
13.90000	434
13.90833	441
13.91667	448
13.92500	455
13.93333	461
13.94167	468
13.95000	474
13.95833	479
13.96667	483
13.97500	486
13.98333	488
13.99167	489
14.00000	489
14.00833	488
14.01667	486
14.02500	482
14.03333	477
14.04167	472
14.05000	466
14.05833	459
14.06667	452
14.07500	444
14.08333	435
14.09167	427
14.10000	418
14.10833	409
14.11667	400
14.12500	392
14.13333	384
14.14167	376
14.15000	369
14.15833	362
14.16667	356
14.17500	350
14.18333	345
14.19167	340
14.20000	336
14.20833	333
14.21667	330
14.22500	327
14.23333	325
14.24167	324
14.25000	323
14.25833	323
14.26667	322
14.27500	322
14.28333	322
14.29167	322
14.30000	323
14.30833	324
14.31667	325
14.32500	326
14.33333	328
14.34167	329
14.35000	330
14.35833	332
14.36667	334
14.37500	336
14.38333	338
14.39167	339
14.40000	341
14.40833	343
14.41667	344
14.42500	346
14.43333	348
14.44167	349
14.45000	350
14.45833	351
14.46667	352
14.47500	353
14.48333	354
14.49167	355
14.50000	355
14.50833	356
14.51667	356
14.52500	356
14.53333	356
14.54167	356
14.55000	356
14.55833	355
14.56667	355
14.57500	355
14.58333	354
14.59167	354
14.60000	353
14.60833	352
14.61667	351
14.62500	351
14.63333	350
14.64167	349
14.65000	348
14.65833	347
14.66667	346
14.67500	345
14.68333	344
14.69167	343
14.70000	342
14.70833	342
14.71667	342
14.72500	341
14.73333	341
14.74167	340
14.75000	339
14.75833	338
14.76667	338
14.77500	337
14.78333	337
14.79167	336
14.80000	336
14.80833	335
14.81667	335
14.82500	335
14.83333	334
14.84167	334
14.85000	334
14.85833	334
14.86667	334
14.87500	334
14.88333	334
14.89167	333
14.90000	333
14.90833	332
14.91667	330
14.92500	329
14.93333	328
14.94167	328
14.95000	327
14.95833	325
14.96667	324
14.97500	323
14.98333	322
14.99167	320
15.00000	319
15.00833	318
15.01667	317
15.02500	315
15.03333	313
15.04167	311
15.05000	310
15.05833	308
15.06667	307
15.07500	305
15.08333	304
15.09167	303
15.10000	303
15.10833	302
15.11667	302
15.12500	301
15.13333	300
15.14167	300
15.15000	300
15.15833	300
15.16667	301
15.17500	301
15.18333	301
15.19167	302
15.20000	302
15.20833	303
15.21667	304
15.22500	304
15.23333	305
15.24167	305
15.25000	305
15.25833	304
15.26667	304
15.27500	303
15.28333	302
15.29167	301
15.30000	299
15.30833	297
15.31667	295
15.32500	292
15.33333	289
15.34167	285
15.35000	282
15.35833	278
15.36667	274
15.37500	270
15.38333	265
15.39167	261
15.40000	256
15.40833	251
15.41667	247
15.42500	242
15.43333	237
15.44167	233
15.45000	229
15.45833	224
15.46667	220
15.47500	216
15.48333	211
15.49167	207
15.50000	203
15.50833	200
15.51667	196
15.52500	192
15.53333	189
15.54167	186
15.55000	183
15.55833	180
15.56667	177
15.57500	174
15.58333	171
15.59167	169
15.60000	166
15.60833	164
15.61667	162
15.62500	160
15.63333	159
15.64167	157
15.65000	156
15.65833	154
15.66667	153
15.67500	152
15.68333	151
15.69167	150
15.70000	149
15.70833	148
15.71667	147
15.72500	146
15.73333	145
15.74167	144
15.75000	143
15.75833	143
15.76667	143
15.77500	143
15.78333	142
15.79167	142
15.80000	142
15.80833	142
15.81667	141
15.82500	141
15.83333	141
15.84167	141
15.85000	141
15.85833	141
15.86667	141
15.87500	142
15.88333	142
15.89167	143
15.90000	145
15.90833	146
15.91667	147
15.92500	149
15.93333	151
15.94167	154
15.95000	157
15.95833	161
15.96667	166
15.97500	171
15.98333	177
15.99167	183
16.00000	190
16.00833	197
16.01667	205
16.02500	214
16.03333	224
16.04167	234
16.05000	244
16.05833	254
16.06667	264
16.07500	275
16.08333	286
16.09167	296
16.10000	306
16.10833	316
16.11667	325
16.12500	333
16.13333	340
16.14167	347
16.15000	352
16.15833	356
16.16667	359
16.17500	360
16.18333	360
16.19167	359
16.20000	357
16.20833	354
16.21667	350
16.22500	345
16.23333	339
16.24167	333
16.25000	326
16.25833	318
16.26667	311
16.27500	303
16.28333	296
16.29167	288
16.30000	281
16.30833	273
16.31667	266
16.32500	259
16.33333	253
16.34167	247
16.35000	242
16.35833	237
16.36667	233
16.37500	229
16.38333	225
16.39167	222
16.40000	219
16.40833	217
16.41667	215
16.42500	213
16.43333	211
16.44167	210
16.45000	208
16.45833	207
16.46667	206
16.47500	205
16.48333	205
16.49167	203
16.50000	202
16.50833	201
16.51667	200
16.52500	198
16.53333	196
16.54167	195
16.55000	193
16.55833	192
16.56667	190
16.57500	189
16.58333	187
16.59167	186
16.60000	184
16.60833	182
16.61667	181
16.62500	179
16.63333	178
16.64167	176
16.65000	174
16.65833	173
16.66667	172
16.67500	170
16.68333	169
16.69167	167
16.70000	165
16.70833	163
16.71667	162
16.72500	160
16.73333	159
16.74167	158
16.75000	156
16.75833	155
16.76667	154
16.77500	153
16.78333	152
16.79167	150
16.80000	148
16.80833	146
16.81667	145
16.82500	143
16.83333	141
16.84167	140
16.85000	138
16.85833	136
16.86667	134
16.87500	133
16.88333	131
16.89167	130
16.90000	128
16.90833	127
16.91667	126
16.92500	125
16.93333	123
16.94167	122
16.95000	121
16.95833	120
16.96667	120
16.97500	119
16.98333	118
16.99167	117
17.00000	116
17.00833	116
17.01667	115
17.02500	114
17.03333	113
17.04167	112
17.05000	111
17.05833	110
17.06667	110
17.07500	109
17.08333	109
17.09167	108
17.10000	108
17.10833	107
17.11667	107
17.12500	106
17.13333	106
17.14167	105
17.15000	105
17.15833	104
17.16667	103
17.17500	103
17.18333	102
17.19167	102
17.20000	101
17.20833	100
17.21667	100
17.22500	100
17.23333	100
17.24167	99
17.25000	99
17.25833	99
17.26667	99
17.27500	99
17.28333	99
17.29167	99
17.30000	98
17.30833	98
17.31667	98
17.32500	98
17.33333	98
17.34167	98
17.35000	97
17.35833	97
17.36667	97
17.37500	98
17.38333	98
17.39167	98
17.40000	98
17.40833	99
17.41667	99
17.42500	99
17.43333	99
17.44167	99
17.45000	100
17.45833	100
17.46667	100
17.47500	101
17.48333	101
17.49167	102
17.50000	102
17.50833	103
17.51667	103
17.52500	104
17.53333	104
17.54167	105
17.55000	106
17.55833	106
17.56667	107
17.57500	107
17.58333	108
17.59167	109
17.60000	110
17.60833	110
17.61667	111
17.62500	111
17.63333	112
17.64167	113
17.65000	113
17.65833	113
17.66667	114
17.67500	114
17.68333	115
17.69167	116
17.70000	117
17.70833	118
17.71667	119
17.72500	120
17.73333	121
17.74167	122
17.75000	123
17.75833	124
17.76667	125
17.77500	126
17.78333	128
17.79167	130
17.80000	131
17.80833	133
17.81667	135
17.82500	136
17.83333	138
17.84167	140
17.85000	143
17.85833	145
17.86667	148
17.87500	152
17.88333	156
17.89167	160
17.90000	164
17.90833	168
17.91667	173
17.92500	178
17.93333	184
17.94167	190
17.95000	196
17.95833	203
17.96667	210
17.97500	217
17.98333	225
17.99167	232
18.00000	240
18.00833	248
18.01667	257
18.02500	266
18.03333	275
18.04167	284
18.05000	292
18.05833	300
18.06667	309
18.07500	317
18.08333	324
18.09167	331
18.10000	338
18.10833	344
18.11667	349
18.12500	353
18.13333	357
18.14167	360
18.15000	362
18.15833	363
18.16667	363
18.17500	363
18.18333	361
18.19167	359
18.20000	356
18.20833	353
18.21667	349
18.22500	344
18.23333	339
18.24167	333
18.25000	327
18.25833	320
18.26667	313
18.27500	307
18.28333	300
18.29167	293
18.30000	286
18.30833	279
18.31667	272
18.32500	265
18.33333	258
18.34167	253
18.35000	248
18.35833	243
18.36667	238
18.37500	233
18.38333	229
18.39167	225
18.40000	222
18.40833	218
18.41667	215
18.42500	212
18.43333	210
18.44167	208
18.45000	207
18.45833	206
18.46667	204
18.47500	203
18.48333	202
18.49167	202
18.50000	201
18.50833	201
18.51667	201
18.52500	201
18.53333	202
18.54167	203
18.55000	203
18.55833	204
18.56667	205
18.57500	207
18.58333	208
18.59167	210
18.60000	212
18.60833	214
18.61667	217
18.62500	219
18.63333	222
18.64167	226
18.65000	229
18.65833	233
18.66667	237
18.67500	242
18.68333	247
18.69167	253
18.70000	259
18.70833	265
18.71667	272
18.72500	280
18.73333	287
18.74167	296
18.75000	305
18.75833	313
18.76667	323
18.77500	333
18.78333	343
18.79167	353
18.80000	363
18.80833	374
18.81667	385
18.82500	396
18.83333	407
18.84167	417
18.85000	428
18.85833	438
18.86667	447
18.87500	456
18.88333	464
18.89167	472
18.90000	479
18.90833	486
18.91667	491
18.92500	496
18.93333	500
18.94167	502
18.95000	504
18.95833	505
18.96667	504
18.97500	503
18.98333	500
18.99167	497
19.00000	493
19.00833	488
19.01667	482
19.02500	476
19.03333	468
19.04167	460
19.05000	452
19.05833	443
19.06667	434
19.07500	425
19.08333	416
19.09167	406
19.10000	397
19.10833	388
19.11667	379
19.12500	370
19.13333	361
19.14167	352
19.15000	343
19.15833	335
19.16667	327
19.17500	320
19.18333	314
19.19167	307
19.20000	301
19.20833	295
19.21667	289
19.22500	284
19.23333	279
19.24167	275
19.25000	271
19.25833	268
19.26667	264
19.27500	261
19.28333	258
19.29167	256
19.30000	254
19.30833	252
19.31667	250
19.32500	248
19.33333	247
19.34167	246
19.35000	245
19.35833	244
19.36667	243
19.37500	242
19.38333	241
19.39167	241
19.40000	240
19.40833	240
19.41667	241
19.42500	241
19.43333	241
19.44167	241
19.45000	241
19.45833	241
19.46667	241
19.47500	241
19.48333	242
19.49167	242
19.50000	242
19.50833	242
19.51667	243
19.52500	243
19.53333	244
19.54167	245
19.55000	245
19.55833	246
19.56667	247
19.57500	248
19.58333	249
19.59167	250
19.60000	250
19.60833	250
19.61667	250
19.62500	250
19.63333	251
19.64167	251
19.65000	252
19.65833	253
19.66667	253
19.67500	254
19.68333	254
19.69167	255
19.70000	256
19.70833	257
19.71667	258
19.72500	259
19.73333	259
19.74167	260
19.75000	260
19.75833	261
19.76667	261
19.77500	262
19.78333	263
19.79167	264
19.80000	265
19.80833	265
19.81667	266
19.82500	267
19.83333	268
19.84167	269
19.85000	270
19.85833	271
19.86667	271
19.87500	272
19.88333	273
19.89167	274
19.90000	274
19.90833	275
19.91667	276
19.92500	277
19.93333	279
19.94167	280
19.95000	281
19.95833	282
19.96667	283
19.97500	284
19.98333	285
19.99167	286
20.00000	287
20.00833	288
20.01667	289
20.02500	290
20.03333	290
20.04167	292
20.05000	292
20.05833	293
20.06667	295
20.07500	296
20.08333	297
20.09167	298
20.10000	299
20.10833	300
20.11667	301
20.12500	302
20.13333	303
20.14167	304
20.15000	305
20.15833	306
20.16667	307
20.17500	308
20.18333	309
20.19167	311
20.20000	312
20.20833	313
20.21667	315
20.22500	316
20.23333	317
20.24167	318
20.25000	319
20.25833	321
20.26667	322
20.27500	324
20.28333	325
20.29167	326
20.30000	328
20.30833	329
20.31667	331
20.32500	333
20.33333	335
20.34167	337
20.35000	339
20.35833	340
20.36667	343
20.37500	345
20.38333	347
20.39167	349
20.40000	352
20.40833	354
20.41667	357
20.42500	360
20.43333	363
20.44167	367
20.45000	370
20.45833	374
20.46667	378
20.47500	382
20.48333	387
20.49167	391
20.50000	396
20.50833	401
20.51667	407
20.52500	413
20.53333	420
20.54167	427
20.55000	434
20.55833	442
20.56667	450
20.57500	459
20.58333	469
20.59167	480
20.60000	491
20.60833	502
20.61667	515
20.62500	529
20.63333	544
20.64167	560
20.65000	576
20.65833	594
20.66667	613
20.67500	632
20.68333	653
20.69167	676
20.70000	699
20.70833	724
20.71667	751
20.72500	779
20.73333	808
20.74167	838
20.75000	869
20.75833	901
20.76667	934
20.77500	968
20.78333	1003
20.79167	1038
20.80000	1075
20.80833	1111
20.81667	1148
20.82500	1185
20.83333	1222
20.84167	1260
20.85000	1297
20.85833	1333
20.86667	1370
20.87500	1405
20.88333	1440
20.89167	1474
20.90000	1508
20.90833	1541
20.91667	1573
20.92500	1604
20.93333	1635
20.94167	1664
20.95000	1693
20.95833	1722
20.96667	1749
20.97500	1777
20.98333	1804
20.99167	1830
21.00000	1857
21.00833	1884
21.01667	1912
21.02500	1941
21.03333	1970
21.04167	2001
21.05000	2033
21.05833	2067
21.06667	2103
21.07500	2142
21.08333	2183
21.09167	2227
21.10000	2274
21.10833	2326
21.11667	2383
21.12500	2444
21.13333	2511
21.14167	2584
21.15000	2664
21.15833	2751
21.16667	2846
21.17500	2950
21.18333	3063
21.19167	3185
21.20000	3318
21.20833	3462
21.21667	3618
21.22500	3786
21.23333	3967
21.24167	4160
21.25000	4368
21.25833	4590
21.26667	4825
21.27500	5075
21.28333	5339
21.29167	5617
21.30000	5908
21.30833	6213
21.31667	6530
21.32500	6859
21.33333	7199
21.34167	7548
21.35000	7905
21.35833	8269
21.36667	8637
21.37500	9008
21.38333	9380
21.39167	9751
21.40000	10118
21.40833	10480
21.41667	10833
21.42500	11176
21.43333	11506
21.44167	11821
21.45000	12118
21.45833	12397
21.46667	12654
21.47500	12887
21.48333	13096
21.49167	13278
21.50000	13432
21.50833	13558
21.51667	13654
21.52500	13720
21.53333	13755
21.54167	13760
21.55000	13734
21.55833	13679
21.56667	13594
21.57500	13480
21.58333	13339
21.59167	13172
21.60000	12980
21.60833	12765
21.61667	12529
21.62500	12273
21.63333	11999
21.64167	11709
21.65000	11405
21.65833	11089
21.66667	10762
21.67500	10429
21.68333	10089
21.69167	9744
21.70000	9397
21.70833	9049
21.71667	8701
21.72500	8356
21.73333	8014
21.74167	7676
21.75000	7345
21.75833	7021
21.76667	6704
21.77500	6395
21.78333	6096
21.79167	5806
21.80000	5525
21.80833	5255
21.81667	4996
21.82500	4748
21.83333	4510
21.84167	4283
21.85000	4066
21.85833	3860
21.86667	3663
21.87500	3477
21.88333	3300
21.89167	3133
21.90000	2975
21.90833	2825
21.91667	2684
21.92500	2551
21.93333	2425
21.94167	2306
21.95000	2195
21.95833	2090
21.96667	1992
21.97500	1900
21.98333	1813
21.99167	1731
22.00000	1655
22.00833	1583
22.01667	1516
22.02500	1452
22.03333	1393
22.04167	1338
22.05000	1286
22.05833	1237
22.06667	1191
22.07500	1149
22.08333	1109
22.09167	1072
22.10000	1038
22.10833	1007
22.11667	977
22.12500	950
22.13333	924
22.14167	901
22.15000	879
22.15833	859
22.16667	840
22.17500	823
22.18333	808
22.19167	794
22.20000	782
22.20833	770
22.21667	760
22.22500	751
22.23333	742
22.24167	735
22.25000	728
22.25833	722
22.26667	717
22.27500	712
22.28333	708
22.29167	704
22.30000	701
22.30833	699
22.31667	697
22.32500	694
22.33333	692
22.34167	691
22.35000	689
22.35833	688
22.36667	687
22.37500	685
22.38333	684
22.39167	683
22.40000	681
22.40833	679
22.41667	677
22.42500	675
22.43333	673
22.44167	671
22.45000	669
22.45833	666
22.46667	663
22.47500	660
22.48333	657
22.49167	653
22.50000	649
22.50833	644
22.51667	639
22.52500	634
22.53333	629
22.54167	623
22.55000	617
22.55833	611
22.56667	605
22.57500	599
22.58333	592
22.59167	585
22.60000	579
22.60833	571
22.61667	564
22.62500	557
22.63333	549
22.64167	542
22.65000	535
22.65833	529
22.66667	522
22.67500	515
22.68333	509
22.69167	502
22.70000	495
22.70833	489
22.71667	482
22.72500	476
22.73333	471
22.74167	465
22.75000	461
22.75833	456
22.76667	452
22.77500	447
22.78333	443
22.79167	440
22.80000	436
22.80833	433
22.81667	431
22.82500	429
22.83333	427
22.84167	426
22.85000	425
22.85833	424
22.86667	424
22.87500	424
22.88333	424
22.89167	425
22.90000	425
22.90833	426
22.91667	428
22.92500	430
22.93333	432
22.94167	434
22.95000	436
22.95833	439
22.96667	442
22.97500	445
22.98333	447
22.99167	450
23.00000	453
23.00833	456
23.01667	460
23.02500	463
23.03333	466
23.04167	469
23.05000	471
23.05833	474
23.06667	477
23.07500	479
23.08333	482
23.09167	484
23.10000	487
23.10833	489
23.11667	491
23.12500	494
23.13333	496
23.14167	497
23.15000	499
23.15833	500
23.16667	502
23.17500	503
23.18333	503
23.19167	504
23.20000	505
23.20833	506
23.21667	507
23.22500	508
23.23333	508
23.24167	508
23.25000	508
23.25833	508
23.26667	508
23.27500	508
23.28333	508
23.29167	507
23.30000	507
23.30833	506
23.31667	506
23.32500	506
23.33333	506
23.34167	505
23.35000	505
23.35833	504
23.36667	504
23.37500	503
23.38333	503
23.39167	502
23.40000	502
23.40833	501
23.41667	500
23.42500	500
23.43333	499
23.44167	498
23.45000	497
23.45833	496
23.46667	496
23.47500	495
23.48333	495
23.49167	495
23.50000	495
23.50833	494
23.51667	493
23.52500	493
23.53333	493
23.54167	493
23.55000	493
23.55833	492
23.56667	492
23.57500	492
23.58333	492
23.59167	491
23.60000	491
23.60833	491
23.61667	491
23.62500	491
23.63333	491
23.64167	491
23.65000	491
23.65833	491
23.66667	490
23.67500	490
23.68333	490
23.69167	490
23.70000	490
23.70833	490
23.71667	490
23.72500	490
23.73333	490
23.74167	490
23.75000	491
23.75833	491
23.76667	491
23.77500	491
23.78333	491
23.79167	491
23.80000	491
23.80833	491
23.81667	491
23.82500	491
23.83333	491
23.84167	491
23.85000	491
23.85833	491
23.86667	491
23.87500	491
23.88333	491
23.89167	492
23.90000	492
23.90833	492
23.91667	492
23.92500	491
23.93333	491
23.94167	491
23.95000	491
23.95833	491
23.96667	491
23.97500	491
23.98333	491
23.99167	490
24.00000	490
24.00833	490
24.01667	489
24.02500	489
24.03333	488
24.04167	488
24.05000	488
24.05833	487
24.06667	487
24.07500	487
24.08333	487
24.09167	487
24.10000	487
24.10833	486
24.11667	486
24.12500	485
24.13333	484
24.14167	483
24.15000	482
24.15833	481
24.16667	480
24.17500	479
24.18333	477
24.19167	477
24.20000	475
24.20833	474
24.21667	473
24.22500	471
24.23333	470
24.24167	468
24.25000	467
24.25833	465
24.26667	464
24.27500	462
24.28333	460
24.29167	458
24.30000	457
24.30833	455
24.31667	453
24.32500	451
24.33333	449
24.34167	448
24.35000	446
24.35833	443
24.36667	441
24.37500	439
24.38333	437
24.39167	435
24.40000	433
24.40833	432
24.41667	430
24.42500	428
24.43333	427
24.44167	425
24.45000	424
24.45833	422
24.46667	421
24.47500	420
24.48333	419
24.49167	419
24.50000	418
24.50833	417
24.51667	416
24.52500	415
24.53333	415
24.54167	414
24.55000	413
24.55833	413
24.56667	412
24.57500	412
24.58333	411
24.59167	411
24.60000	411
24.60833	410
24.61667	410
24.62500	410
24.63333	411
24.64167	411
24.65000	411
24.65833	411
24.66667	411
24.67500	411
24.68333	412
24.69167	412
24.70000	413
24.70833	414
24.71667	414
24.72500	414
24.73333	415
24.74167	415
24.75000	415
24.75833	416
24.76667	416
24.77500	417
24.78333	417
24.79167	417
24.80000	417
24.80833	417
24.81667	417
24.82500	418
24.83333	418
24.84167	419
24.85000	420
24.85833	420
24.86667	420
24.87500	420
24.88333	420
24.89167	420
24.90000	420
24.90833	420
24.91667	421
24.92500	421
24.93333	421
24.94167	421
24.95000	420
24.95833	420
24.96667	421
24.97500	421
24.98333	421
24.99167	421
25.00000	421
25.00833	421
25.01667	421
25.02500	421
25.03333	421
25.04167	421
25.05000	420
25.05833	420
25.06667	419
25.07500	419
25.08333	419
25.09167	419
25.10000	419
25.10833	419
25.11667	419
25.12500	419
25.13333	419
25.14167	419
25.15000	418
25.15833	418
25.16667	418
25.17500	417
25.18333	417
25.19167	416
25.20000	416
25.20833	416
25.21667	416
25.22500	416
25.23333	415
25.24167	415
25.25000	415
25.25833	415
25.26667	414
25.27500	414
25.28333	414
25.29167	413
25.30000	413
25.30833	413
25.31667	412
25.32500	412
25.33333	412
25.34167	412
25.35000	412
25.35833	413
25.36667	413
25.37500	413
25.38333	413
25.39167	412
25.40000	412
25.40833	412
25.41667	412
25.42500	412
25.43333	412
25.44167	412
25.45000	412
25.45833	412
25.46667	412
25.47500	412
25.48333	412
25.49167	412
25.50000	412
25.50833	412
25.51667	412
25.52500	412
25.53333	412
25.54167	413
25.55000	413
25.55833	414
25.56667	414
25.57500	415
25.58333	415
25.59167	416
25.60000	416
25.60833	417
25.61667	417
25.62500	418
25.63333	419
25.64167	419
25.65000	420
25.65833	420
25.66667	421
25.67500	422
25.68333	422
25.69167	422
25.70000	423
25.70833	423
25.71667	424
25.72500	424
25.73333	425
25.74167	425
25.75000	426
25.75833	427
25.76667	427
25.77500	428
25.78333	429
25.79167	430
25.80000	430
25.80833	431
25.81667	431
25.82500	431
25.83333	432
25.84167	433
25.85000	433
25.85833	434
25.86667	435
25.87500	437
25.88333	438
25.89167	440
25.90000	441
25.90833	442
25.91667	444
25.92500	445
25.93333	447
25.94167	449
25.95000	452
25.95833	454
25.96667	456
25.97500	459
25.98333	461
25.99167	464
26.00000	467
26.00833	469
26.01667	472
26.02500	476
26.03333	479
26.04167	483
26.05000	487
26.05833	492
26.06667	497
26.07500	502
26.08333	508
26.09167	514
26.10000	521
26.10833	528
26.11667	535
26.12500	543
26.13333	551
26.14167	559
26.15000	569
26.15833	579
26.16667	589
26.17500	600
26.18333	612
26.19167	624
26.20000	636
26.20833	650
26.21667	664
26.22500	679
26.23333	695
26.24167	711
26.25000	729
26.25833	748
26.26667	767
26.27500	787
26.28333	808
26.29167	828
26.30000	850
26.30833	873
26.31667	896
26.32500	919
26.33333	943
26.34167	967
26.35000	992
26.35833	1017
26.36667	1042
26.37500	1067
26.38333	1093
26.39167	1118
26.40000	1143
26.40833	1168
26.41667	1192
26.42500	1216
26.43333	1238
26.44167	1261
26.45000	1282
26.45833	1302
26.46667	1322
26.47500	1340
26.48333	1357
26.49167	1372
26.50000	1386
26.50833	1398
26.51667	1408
26.52500	1417
26.53333	1423
26.54167	1428
26.55000	1431
26.55833	1432
26.56667	1431
26.57500	1429
26.58333	1425
26.59167	1419
26.60000	1412
26.60833	1402
26.61667	1391
26.62500	1377
26.63333	1362
26.64167	1346
26.65000	1329
26.65833	1310
26.66667	1290
26.67500	1270
26.68333	1249
26.69167	1227
26.70000	1204
26.70833	1181
26.71667	1157
26.72500	1133
26.73333	1109
26.74167	1084
26.75000	1060
26.75833	1035
26.76667	1010
26.77500	986
26.78333	962
26.79167	938
26.80000	915
26.80833	892
26.81667	870
26.82500	848
26.83333	827
26.84167	806
26.85000	786
26.85833	767
26.86667	748
26.87500	730
26.88333	712
26.89167	695
26.90000	679
26.90833	663
26.91667	648
26.92500	634
26.93333	620
26.94167	607
26.95000	594
26.95833	583
26.96667	571
26.97500	560
26.98333	550
26.99167	539
27.00000	529
27.00833	520
27.01667	511
27.02500	502
27.03333	494
27.04167	486
27.05000	478
27.05833	470
27.06667	463
27.07500	456
27.08333	450
27.09167	443
27.10000	437
27.10833	430
27.11667	424
27.12500	419
27.13333	413
27.14167	408
27.15000	402
27.15833	397
27.16667	392
27.17500	388
27.18333	384
27.19167	379
27.20000	375
27.20833	371
27.21667	367
27.22500	363
27.23333	359
27.24167	355
27.25000	351
27.25833	347
27.26667	343
27.27500	340
27.28333	336
27.29167	333
27.30000	330
27.30833	327
27.31667	323
27.32500	320
27.33333	317
27.34167	314
27.35000	311
27.35833	308
27.36667	305
27.37500	302
27.38333	299
27.39167	297
27.40000	294
27.40833	291
27.41667	289
27.42500	286
27.43333	283
27.44167	280
27.45000	278
27.45833	275
27.46667	273
27.47500	271
27.48333	269
27.49167	266
27.50000	264
27.50833	262
27.51667	260
27.52500	258
27.53333	256
27.54167	254
27.55000	252
27.55833	250
27.56667	248
27.57500	247
27.58333	245
27.59167	244
27.60000	242
27.60833	241
27.61667	240
27.62500	239
27.63333	237
27.64167	236
27.65000	235
27.65833	235
27.66667	234
27.67500	233
27.68333	232
27.69167	231
27.70000	229
27.70833	228
27.71667	227
27.72500	227
27.73333	226
27.74167	225
27.75000	224
27.75833	223
27.76667	222
27.77500	221
27.78333	220
27.79167	219
27.80000	219
27.80833	218
27.81667	217
27.82500	217
27.83333	216
27.84167	216
27.85000	215
27.85833	215
27.86667	214
27.87500	213
27.88333	213
27.89167	212
27.90000	211
27.90833	211
27.91667	210
27.92500	209
27.93333	209
27.94167	208
27.95000	207
27.95833	207
27.96667	206
27.97500	206
27.98333	205
27.99167	205
28.00000	204

