R.Time (min)	Intensity
0.00000	-44
0.00833	-44
0.01667	-9
0.02500	-2
0.03333	-3
0.04167	-4
0.05000	-5
0.05833	-6
0.06667	-7
0.07500	-8
0.08333	-8
0.09167	-9
0.10000	-9
0.10833	-10
0.11667	-10
0.12500	-11
0.13333	-11
0.14167	-12
0.15000	-13
0.15833	-14
0.16667	-15
0.17500	-15
0.18333	-16
0.19167	-17
0.20000	-17
0.20833	-18
0.21667	-19
0.22500	-19
0.23333	-20
0.24167	-21
0.25000	-22
0.25833	-23
0.26667	-23
0.27500	-24
0.28333	-24
0.29167	-25
0.30000	-25
0.30833	-26
0.31667	-27
0.32500	-27
0.33333	-27
0.34167	-28
0.35000	-29
0.35833	-29
0.36667	-30
0.37500	-31
0.38333	-31
0.39167	-31
0.40000	-31
0.40833	-31
0.41667	-32
0.42500	-32
0.43333	-33
0.44167	-33
0.45000	-34
0.45833	-34
0.46667	-35
0.47500	-36
0.48333	-36
0.49167	-37
0.50000	-38
0.50833	-38
0.51667	-39
0.52500	-39
0.53333	-39
0.54167	-40
0.55000	-40
0.55833	-40
0.56667	-41
0.57500	-41
0.58333	-41
0.59167	-42
0.60000	-42
0.60833	-42
0.61667	-43
0.62500	-43
0.63333	-44
0.64167	-44
0.65000	-44
0.65833	-45
0.66667	-45
0.67500	-45
0.68333	-46
0.69167	-46
0.70000	-47
0.70833	-47
0.71667	-47
0.72500	-48
0.73333	-48
0.74167	-48
0.75000	-49
0.75833	-49
0.76667	-50
0.77500	-51
0.78333	-52
0.79167	-52
0.80000	-53
0.80833	-54
0.81667	-54
0.82500	-54
0.83333	-54
0.84167	-54
0.85000	-55
0.85833	-55
0.86667	-55
0.87500	-55
0.88333	-56
0.89167	-57
0.90000	-57
0.90833	-58
0.91667	-59
0.92500	-59
0.93333	-59
0.94167	-60
0.95000	-61
0.95833	-61
0.96667	-61
0.97500	-61
0.98333	-62
0.99167	-62
1.00000	-63
1.00833	-63
1.01667	-63
1.02500	-64
1.03333	-64
1.04167	-64
1.05000	-64
1.05833	-64
1.06667	-65
1.07500	-65
1.08333	-65
1.09167	-66
1.10000	-66
1.10833	-67
1.11667	-67
1.12500	-67
1.13333	-67
1.14167	-67
1.15000	-68
1.15833	-68
1.16667	-69
1.17500	-69
1.18333	-69
1.19167	-69
1.20000	-70
1.20833	-70
1.21667	-70
1.22500	-71
1.23333	-71
1.24167	-71
1.25000	-72
1.25833	-72
1.26667	-72
1.27500	-73
1.28333	-73
1.29167	-73
1.30000	-73
1.30833	-74
1.31667	-74
1.32500	-75
1.33333	-75
1.34167	-76
1.35000	-76
1.35833	-76
1.36667	-76
1.37500	-77
1.38333	-77
1.39167	-77
1.40000	-77
1.40833	-78
1.41667	-79
1.42500	-79
1.43333	-79
1.44167	-79
1.45000	-80
1.45833	-81
1.46667	-81
1.47500	-82
1.48333	-81
1.49167	-81
1.50000	-82
1.50833	-82
1.51667	-82
1.52500	-83
1.53333	-83
1.54167	-84
1.55000	-84
1.55833	-84
1.56667	-84
1.57500	-84
1.58333	-85
1.59167	-85
1.60000	-85
1.60833	-85
1.61667	-86
1.62500	-86
1.63333	-86
1.64167	-86
1.65000	-87
1.65833	-87
1.66667	-87
1.67500	-87
1.68333	-88
1.69167	-88
1.70000	-88
1.70833	-88
1.71667	-89
1.72500	-89
1.73333	-89
1.74167	-89
1.75000	-90
1.75833	-90
1.76667	-90
1.77500	-89
1.78333	-89
1.79167	-89
1.80000	-89
1.80833	-89
1.81667	-90
1.82500	-90
1.83333	-90
1.84167	-90
1.85000	-90
1.85833	-90
1.86667	-90
1.87500	-90
1.88333	-91
1.89167	-91
1.90000	-91
1.90833	-92
1.91667	-92
1.92500	-92
1.93333	-93
1.94167	-93
1.95000	-94
1.95833	-95
1.96667	-95
1.97500	-95
1.98333	-95
1.99167	-95
2.00000	-95
2.00833	-95
2.01667	-96
2.02500	-96
2.03333	-96
2.04167	-96
2.05000	-97
2.05833	-97
2.06667	-97
2.07500	-97
2.08333	-98
2.09167	-98
2.10000	-98
2.10833	-98
2.11667	-98
2.12500	-98
2.13333	-99
2.14167	-99
2.15000	-99
2.15833	-99
2.16667	-99
2.17500	-100
2.18333	-100
2.19167	-99
2.20000	-99
2.20833	-99
2.21667	-100
2.22500	-100
2.23333	-100
2.24167	-101
2.25000	-101
2.25833	-102
2.26667	-102
2.27500	-103
2.28333	-103
2.29167	-103
2.30000	-104
2.30833	-104
2.31667	-104
2.32500	-104
2.33333	-104
2.34167	-104
2.35000	-104
2.35833	-105
2.36667	-105
2.37500	-106
2.38333	-106
2.39167	-106
2.40000	-106
2.40833	-107
2.41667	-107
2.42500	-107
2.43333	-107
2.44167	-107
2.45000	-107
2.45833	-107
2.46667	-107
2.47500	-108
2.48333	-108
2.49167	-108
2.50000	-108
2.50833	-108
2.51667	-108
2.52500	-108
2.53333	-108
2.54167	-109
2.55000	-109
2.55833	-109
2.56667	-109
2.57500	-109
2.58333	-109
2.59167	-109
2.60000	-109
2.60833	-110
2.61667	-110
2.62500	-110
2.63333	-110
2.64167	-110
2.65000	-110
2.65833	-111
2.66667	-111
2.67500	-110
2.68333	-110
2.69167	-111
2.70000	-111
2.70833	-112
2.71667	-112
2.72500	-112
2.73333	-112
2.74167	-112
2.75000	-112
2.75833	-113
2.76667	-113
2.77500	-113
2.78333	-113
2.79167	-113
2.80000	-113
2.80833	-114
2.81667	-114
2.82500	-114
2.83333	-114
2.84167	-115
2.85000	-115
2.85833	-115
2.86667	-116
2.87500	-116
2.88333	-116
2.89167	-117
2.90000	-118
2.90833	-118
2.91667	-118
2.92500	-118
2.93333	-119
2.94167	-119
2.95000	-119
2.95833	-119
2.96667	-119
2.97500	-119
2.98333	-120
2.99167	-120
3.00000	-120
3.00833	-121
3.01667	-121
3.02500	-121
3.03333	-122
3.04167	-122
3.05000	-123
3.05833	-123
3.06667	-124
3.07500	-124
3.08333	-124
3.09167	-124
3.10000	-124
3.10833	-124
3.11667	-123
3.12500	-123
3.13333	-123
3.14167	-124
3.15000	-124
3.15833	-124
3.16667	-125
3.17500	-125
3.18333	-125
3.19167	-126
3.20000	-126
3.20833	-126
3.21667	-126
3.22500	-125
3.23333	-125
3.24167	-125
3.25000	-125
3.25833	-125
3.26667	-125
3.27500	-125
3.28333	-125
3.29167	-126
3.30000	-126
3.30833	-126
3.31667	-126
3.32500	-126
3.33333	-126
3.34167	-126
3.35000	-126
3.35833	-127
3.36667	-127
3.37500	-127
3.38333	-127
3.39167	-127
3.40000	-127
3.40833	-127
3.41667	-127
3.42500	-126
3.43333	-126
3.44167	-126
3.45000	-126
3.45833	-126
3.46667	-126
3.47500	-126
3.48333	-127
3.49167	-127
3.50000	-127
3.50833	-127
3.51667	-127
3.52500	-128
3.53333	-128
3.54167	-128
3.55000	-128
3.55833	-127
3.56667	-128
3.57500	-128
3.58333	-128
3.59167	-128
3.60000	-129
3.60833	-129
3.61667	-129
3.62500	-130
3.63333	-130
3.64167	-130
3.65000	-131
3.65833	-131
3.66667	-131
3.67500	-131
3.68333	-132
3.69167	-132
3.70000	-132
3.70833	-132
3.71667	-132
3.72500	-133
3.73333	-133
3.74167	-133
3.75000	-133
3.75833	-132
3.76667	-132
3.77500	-132
3.78333	-132
3.79167	-131
3.80000	-131
3.80833	-131
3.81667	-131
3.82500	-132
3.83333	-132
3.84167	-133
3.85000	-133
3.85833	-134
3.86667	-134
3.87500	-133
3.88333	-133
3.89167	-133
3.90000	-133
3.90833	-133
3.91667	-133
3.92500	-133
3.93333	-133
3.94167	-133
3.95000	-133
3.95833	-134
3.96667	-134
3.97500	-134
3.98333	-134
3.99167	-134
4.00000	-134
4.00833	-134
4.01667	-133
4.02500	-133
4.03333	-134
4.04167	-134
4.05000	-134
4.05833	-134
4.06667	-134
4.07500	-134
4.08333	-135
4.09167	-135
4.10000	-135
4.10833	-135
4.11667	-134
4.12500	-134
4.13333	-135
4.14167	-135
4.15000	-135
4.15833	-134
4.16667	-134
4.17500	-134
4.18333	-135
4.19167	-135
4.20000	-135
4.20833	-135
4.21667	-135
4.22500	-135
4.23333	-135
4.24167	-136
4.25000	-135
4.25833	-135
4.26667	-136
4.27500	-136
4.28333	-137
4.29167	-137
4.30000	-137
4.30833	-137
4.31667	-136
4.32500	-136
4.33333	-136
4.34167	-136
4.35000	-136
4.35833	-135
4.36667	-136
4.37500	-136
4.38333	-136
4.39167	-136
4.40000	-136
4.40833	-136
4.41667	-136
4.42500	-136
4.43333	-135
4.44167	-135
4.45000	-135
4.45833	-136
4.46667	-136
4.47500	-136
4.48333	-135
4.49167	-135
4.50000	-136
4.50833	-136
4.51667	-136
4.52500	-136
4.53333	-135
4.54167	-135
4.55000	-136
4.55833	-136
4.56667	-136
4.57500	-136
4.58333	-136
4.59167	-136
4.60000	-135
4.60833	-135
4.61667	-136
4.62500	-136
4.63333	-136
4.64167	-136
4.65000	-136
4.65833	-136
4.66667	-136
4.67500	-136
4.68333	-135
4.69167	-135
4.70000	-135
4.70833	-135
4.71667	-135
4.72500	-135
4.73333	-136
4.74167	-136
4.75000	-136
4.75833	-136
4.76667	-135
4.77500	-135
4.78333	-135
4.79167	-135
4.80000	-135
4.80833	-135
4.81667	-135
4.82500	-135
4.83333	-136
4.84167	-136
4.85000	-135
4.85833	-135
4.86667	-135
4.87500	-134
4.88333	-135
4.89167	-135
4.90000	-135
4.90833	-136
4.91667	-137
4.92500	-137
4.93333	-136
4.94167	-137
4.95000	-137
4.95833	-136
4.96667	-136
4.97500	-136
4.98333	-137
4.99167	-137
5.00000	-137
5.00833	-137
5.01667	-137
5.02500	-137
5.03333	-137
5.04167	-137
5.05000	-137
5.05833	-137
5.06667	-137
5.07500	-138
5.08333	-138
5.09167	-138
5.10000	-138
5.10833	-138
5.11667	-138
5.12500	-137
5.13333	-137
5.14167	-137
5.15000	-137
5.15833	-137
5.16667	-137
5.17500	-137
5.18333	-137
5.19167	-137
5.20000	-137
5.20833	-136
5.21667	-136
5.22500	-137
5.23333	-137
5.24167	-137
5.25000	-137
5.25833	-137
5.26667	-137
5.27500	-136
5.28333	-136
5.29167	-136
5.30000	-136
5.30833	-135
5.31667	-135
5.32500	-134
5.33333	-134
5.34167	-133
5.35000	-133
5.35833	-133
5.36667	-133
5.37500	-133
5.38333	-133
5.39167	-133
5.40000	-133
5.40833	-133
5.41667	-133
5.42500	-133
5.43333	-133
5.44167	-133
5.45000	-132
5.45833	-132
5.46667	-132
5.47500	-132
5.48333	-132
5.49167	-132
5.50000	-132
5.50833	-132
5.51667	-132
5.52500	-132
5.53333	-131
5.54167	-131
5.55000	-131
5.55833	-131
5.56667	-131
5.57500	-131
5.58333	-131
5.59167	-131
5.60000	-131
5.60833	-131
5.61667	-131
5.62500	-130
5.63333	-130
5.64167	-130
5.65000	-130
5.65833	-130
5.66667	-130
5.67500	-130
5.68333	-130
5.69167	-130
5.70000	-130
5.70833	-130
5.71667	-130
5.72500	-130
5.73333	-130
5.74167	-130
5.75000	-130
5.75833	-130
5.76667	-130
5.77500	-130
5.78333	-130
5.79167	-130
5.80000	-130
5.80833	-130
5.81667	-130
5.82500	-130
5.83333	-130
5.84167	-130
5.85000	-130
5.85833	-131
5.86667	-130
5.87500	-130
5.88333	-130
5.89167	-130
5.90000	-130
5.90833	-131
5.91667	-131
5.92500	-131
5.93333	-131
5.94167	-131
5.95000	-131
5.95833	-131
5.96667	-131
5.97500	-131
5.98333	-130
5.99167	-130
6.00000	-129
6.00833	-129
6.01667	-129
6.02500	-130
6.03333	-129
6.04167	-129
6.05000	-129
6.05833	-129
6.06667	-128
6.07500	-128
6.08333	-127
6.09167	-127
6.10000	-127
6.10833	-127
6.11667	-127
6.12500	-126
6.13333	-126
6.14167	-126
6.15000	-126
6.15833	-126
6.16667	-126
6.17500	-126
6.18333	-125
6.19167	-125
6.20000	-125
6.20833	-124
6.21667	-124
6.22500	-124
6.23333	-124
6.24167	-124
6.25000	-124
6.25833	-124
6.26667	-125
6.27500	-125
6.28333	-125
6.29167	-125
6.30000	-125
6.30833	-125
6.31667	-126
6.32500	-126
6.33333	-126
6.34167	-126
6.35000	-127
6.35833	-127
6.36667	-127
6.37500	-127
6.38333	-127
6.39167	-127
6.40000	-127
6.40833	-127
6.41667	-126
6.42500	-126
6.43333	-126
6.44167	-126
6.45000	-126
6.45833	-125
6.46667	-125
6.47500	-125
6.48333	-124
6.49167	-124
6.50000	-124
6.50833	-124
6.51667	-123
6.52500	-123
6.53333	-123
6.54167	-122
6.55000	-122
6.55833	-121
6.56667	-121
6.57500	-121
6.58333	-121
6.59167	-121
6.60000	-121
6.60833	-121
6.61667	-120
6.62500	-120
6.63333	-121
6.64167	-121
6.65000	-121
6.65833	-122
6.66667	-122
6.67500	-122
6.68333	-122
6.69167	-122
6.70000	-122
6.70833	-122
6.71667	-122
6.72500	-122
6.73333	-123
6.74167	-123
6.75000	-123
6.75833	-122
6.76667	-122
6.77500	-122
6.78333	-122
6.79167	-121
6.80000	-121
6.80833	-121
6.81667	-120
6.82500	-120
6.83333	-120
6.84167	-120
6.85000	-119
6.85833	-119
6.86667	-119
6.87500	-118
6.88333	-118
6.89167	-117
6.90000	-117
6.90833	-116
6.91667	-116
6.92500	-115
6.93333	-115
6.94167	-115
6.95000	-115
6.95833	-115
6.96667	-115
6.97500	-115
6.98333	-115
6.99167	-115
7.00000	-115
7.00833	-116
7.01667	-116
7.02500	-116
7.03333	-116
7.04167	-116
7.05000	-115
7.05833	-115
7.06667	-114
7.07500	-112
7.08333	-110
7.09167	-108
7.10000	-105
7.10833	-100
7.11667	-95
7.12500	-89
7.13333	-81
7.14167	-72
7.15000	-62
7.15833	-49
7.16667	-34
7.17500	-17
7.18333	2
7.19167	24
7.20000	48
7.20833	75
7.21667	103
7.22500	134
7.23333	166
7.24167	199
7.25000	233
7.25833	266
7.26667	297
7.27500	325
7.28333	347
7.29167	361
7.30000	367
7.30833	363
7.31667	349
7.32500	325
7.33333	296
7.34167	267
7.35000	247
7.35833	249
7.36667	289
7.37500	384
7.38333	555
7.39167	821
7.40000	1203
7.40833	1718
7.41667	2383
7.42500	3207
7.43333	4196
7.44167	5349
7.45000	6657
7.45833	8102
7.46667	9656
7.47500	11282
7.48333	12933
7.49167	14554
7.50000	16080
7.50833	17448
7.51667	18594
7.52500	19462
7.53333	20013
7.54167	20222
7.55000	20086
7.55833	19625
7.56667	18872
7.57500	17879
7.58333	16704
7.59167	15410
7.60000	14055
7.60833	12693
7.61667	11368
7.62500	10114
7.63333	8954
7.64167	7902
7.65000	6963
7.65833	6137
7.66667	5418
7.67500	4798
7.68333	4265
7.69167	3810
7.70000	3421
7.70833	3087
7.71667	2801
7.72500	2554
7.73333	2340
7.74167	2152
7.75000	1987
7.75833	1840
7.76667	1710
7.77500	1593
7.78333	1486
7.79167	1389
7.80000	1300
7.80833	1219
7.81667	1144
7.82500	1074
7.83333	1008
7.84167	947
7.85000	890
7.85833	836
7.86667	785
7.87500	737
7.88333	691
7.89167	648
7.90000	607
7.90833	570
7.91667	534
7.92500	501
7.93333	471
7.94167	444
7.95000	419
7.95833	397
7.96667	378
7.97500	362
7.98333	348
7.99167	337
8.00000	327
8.00833	319
8.01667	312
8.02500	305
8.03333	299
8.04167	294
8.05000	288
8.05833	282
8.06667	276
8.07500	269
8.08333	262
8.09167	254
8.10000	246
8.10833	237
8.11667	228
8.12500	220
8.13333	211
8.14167	202
8.15000	193
8.15833	184
8.16667	175
8.17500	167
8.18333	158
8.19167	151
8.20000	144
8.20833	137
8.21667	131
8.22500	126
8.23333	121
8.24167	117
8.25000	113
8.25833	110
8.26667	107
8.27500	105
8.28333	103
8.29167	101
8.30000	99
8.30833	98
8.31667	97
8.32500	96
8.33333	96
8.34167	95
8.35000	94
8.35833	93
8.36667	93
8.37500	92
8.38333	92
8.39167	91
8.40000	90
8.40833	89
8.41667	88
8.42500	87
8.43333	86
8.44167	85
8.45000	84
8.45833	83
8.46667	81
8.47500	79
8.48333	77
8.49167	75
8.50000	73
8.50833	72
8.51667	71
8.52500	70
8.53333	68
8.54167	67
8.55000	67
8.55833	66
8.56667	65
8.57500	64
8.58333	64
8.59167	65
8.60000	65
8.60833	66
8.61667	68
8.62500	70
8.63333	73
8.64167	77
8.65000	81
8.65833	87
8.66667	94
8.67500	101
8.68333	109
8.69167	119
8.70000	129
8.70833	140
8.71667	151
8.72500	163
8.73333	175
8.74167	187
8.75000	198
8.75833	209
8.76667	219
8.77500	228
8.78333	236
8.79167	244
8.80000	250
8.80833	256
8.81667	261
8.82500	266
8.83333	271
8.84167	276
8.85000	283
8.85833	291
8.86667	302
8.87500	316
8.88333	334
8.89167	356
8.90000	384
8.90833	419
8.91667	461
8.92500	512
8.93333	572
8.94167	642
8.95000	722
8.95833	811
8.96667	910
8.97500	1018
8.98333	1133
8.99167	1255
9.00000	1380
9.00833	1508
9.01667	1634
9.02500	1758
9.03333	1877
9.04167	1987
9.05000	2087
9.05833	2174
9.06667	2246
9.07500	2303
9.08333	2342
9.09167	2363
9.10000	2367
9.10833	2354
9.11667	2325
9.12500	2280
9.13333	2221
9.14167	2149
9.15000	2068
9.15833	1978
9.16667	1882
9.17500	1781
9.18333	1678
9.19167	1575
9.20000	1472
9.20833	1371
9.21667	1273
9.22500	1179
9.23333	1090
9.24167	1006
9.25000	928
9.25833	856
9.26667	790
9.27500	729
9.28333	674
9.29167	625
9.30000	581
9.30833	541
9.31667	507
9.32500	476
9.33333	450
9.34167	428
9.35000	409
9.35833	394
9.36667	384
9.37500	376
9.38333	373
9.39167	375
9.40000	381
9.40833	393
9.41667	411
9.42500	437
9.43333	472
9.44167	517
9.45000	576
9.45833	650
9.46667	743
9.47500	859
9.48333	1001
9.49167	1176
9.50000	1387
9.50833	1640
9.51667	1940
9.52500	2294
9.53333	2705
9.54167	3178
9.55000	3717
9.55833	4322
9.56667	4996
9.57500	5736
9.58333	6540
9.59167	7402
9.60000	8315
9.60833	9269
9.61667	10252
9.62500	11252
9.63333	12255
9.64167	13244
9.65000	14204
9.65833	15120
9.66667	15976
9.67500	16760
9.68333	17458
9.69167	18062
9.70000	18565
9.70833	18961
9.71667	19249
9.72500	19430
9.73333	19508
9.74167	19491
9.75000	19386
9.75833	19205
9.76667	18958
9.77500	18658
9.78333	18317
9.79167	17950
9.80000	17569
9.80833	17186
9.81667	16811
9.82500	16455
9.83333	16128
9.84167	15835
9.85000	15584
9.85833	15380
9.86667	15226
9.87500	15123
9.88333	15074
9.89167	15079
9.90000	15137
9.90833	15248
9.91667	15408
9.92500	15617
9.93333	15871
9.94167	16168
9.95000	16504
9.95833	16877
9.96667	17284
9.97500	17720
9.98333	18184
9.99167	18670
10.00000	19177
10.00833	19700
10.01667	20237
10.02500	20782
10.03333	21331
10.04167	21875
10.05000	22404
10.05833	22903
10.06667	23347
10.07500	23710
10.08333	23954
10.09167	24040
10.10000	23928
10.10833	23587
10.11667	22995
10.12500	22150
10.13333	21065
10.14167	19773
10.15000	18322
10.15833	16765
10.16667	15162
10.17500	13566
10.18333	12022
10.19167	10569
10.20000	9230
10.20833	8022
10.21667	6947
10.22500	6007
10.23333	5192
10.24167	4493
10.25000	3898
10.25833	3395
10.26667	2971
10.27500	2615
10.28333	2314
10.29167	2062
10.30000	1849
10.30833	1668
10.31667	1514
10.32500	1382
10.33333	1268
10.34167	1168
10.35000	1081
10.35833	1004
10.36667	936
10.37500	874
10.38333	818
10.39167	767
10.40000	720
10.40833	677
10.41667	637
10.42500	600
10.43333	566
10.44167	535
10.45000	506
10.45833	479
10.46667	455
10.47500	432
10.48333	412
10.49167	395
10.50000	379
10.50833	366
10.51667	354
10.52500	344
10.53333	336
10.54167	329
10.55000	324
10.55833	320
10.56667	317
10.57500	314
10.58333	312
10.59167	310
10.60000	308
10.60833	305
10.61667	303
10.62500	300
10.63333	296
10.64167	291
10.65000	286
10.65833	279
10.66667	271
10.67500	262
10.68333	252
10.69167	241
10.70000	230
10.70833	218
10.71667	207
10.72500	195
10.73333	183
10.74167	172
10.75000	161
10.75833	150
10.76667	140
10.77500	130
10.78333	122
10.79167	114
10.80000	107
10.80833	101
10.81667	96
10.82500	91
10.83333	87
10.84167	84
10.85000	81
10.85833	78
10.86667	76
10.87500	75
10.88333	73
10.89167	72
10.90000	71
10.90833	70
10.91667	69
10.92500	68
10.93333	67
10.94167	66
10.95000	65
10.95833	64
10.96667	62
10.97500	60
10.98333	58
10.99167	56
11.00000	54
11.00833	52
11.01667	50
11.02500	48
11.03333	47
11.04167	45
11.05000	44
11.05833	43
11.06667	42
11.07500	41
11.08333	41
11.09167	41
11.10000	41
11.10833	42
11.11667	43
11.12500	44
11.13333	45
11.14167	47
11.15000	49
11.15833	51
11.16667	54
11.17500	57
11.18333	60
11.19167	64
11.20000	67
11.20833	71
11.21667	75
11.22500	79
11.23333	83
11.24167	87
11.25000	91
11.25833	95
11.26667	99
11.27500	103
11.28333	107
11.29167	110
11.30000	113
11.30833	116
11.31667	119
11.32500	121
11.33333	122
11.34167	123
11.35000	124
11.35833	124
11.36667	124
11.37500	123
11.38333	122
11.39167	120
11.40000	117
11.40833	115
11.41667	112
11.42500	108
11.43333	105
11.44167	100
11.45000	96
11.45833	92
11.46667	88
11.47500	84
11.48333	80
11.49167	76
11.50000	72
11.50833	68
11.51667	65
11.52500	61
11.53333	57
11.54167	55
11.55000	52
11.55833	49
11.56667	47
11.57500	44
11.58333	42
11.59167	40
11.60000	38
11.60833	37
11.61667	36
11.62500	34
11.63333	33
11.64167	32
11.65000	32
11.65833	32
11.66667	31
11.67500	31
11.68333	32
11.69167	32
11.70000	32
11.70833	32
11.71667	32
11.72500	32
11.73333	32
11.74167	33
11.75000	33
11.75833	33
11.76667	34
11.77500	34
11.78333	33
11.79167	33
11.80000	33
11.80833	33
11.81667	32
11.82500	30
11.83333	29
11.84167	28
11.85000	26
11.85833	25
11.86667	24
11.87500	22
11.88333	19
11.89167	17
11.90000	15
11.90833	12
11.91667	10
11.92500	8
11.93333	6
11.94167	4
11.95000	3
11.95833	1
11.96667	0
11.97500	-1
11.98333	-2
11.99167	-2
12.00000	-3
12.00833	-2
12.01667	-2
12.02500	-2
12.03333	-1
12.04167	0
12.05000	1
12.05833	2
12.06667	4
12.07500	5
12.08333	6
12.09167	7
12.10000	9
12.10833	10
12.11667	11
12.12500	12
12.13333	13
12.14167	14
12.15000	14
12.15833	14
12.16667	14
12.17500	14
12.18333	14
12.19167	14
12.20000	14
12.20833	14
12.21667	14
12.22500	13
12.23333	13
12.24167	12
12.25000	11
12.25833	10
12.26667	8
12.27500	7
12.28333	5
12.29167	4
12.30000	2
12.30833	0
12.31667	-1
12.32500	-4
12.33333	-6
12.34167	-8
12.35000	-10
12.35833	-12
12.36667	-15
12.37500	-17
12.38333	-18
12.39167	-21
12.40000	-22
12.40833	-24
12.41667	-27
12.42500	-29
12.43333	-30
12.44167	-32
12.45000	-34
12.45833	-36
12.46667	-37
12.47500	-39
12.48333	-41
12.49167	-42
12.50000	-43
12.50833	-43
12.51667	-44
12.52500	-44
12.53333	-45
12.54167	-45
12.55000	-46
12.55833	-46
12.56667	-47
12.57500	-47
12.58333	-47
12.59167	-47
12.60000	-47
12.60833	-47
12.61667	-47
12.62500	-46
12.63333	-45
12.64167	-45
12.65000	-44
12.65833	-44
12.66667	-43
12.67500	-43
12.68333	-42
12.69167	-42
12.70000	-41
12.70833	-41
12.71667	-40
12.72500	-39
12.73333	-38
12.74167	-38
12.75000	-37
12.75833	-37
12.76667	-36
12.77500	-36
12.78333	-36
12.79167	-36
12.80000	-35
12.80833	-35
12.81667	-35
12.82500	-35
12.83333	-35
12.84167	-34
12.85000	-34
12.85833	-34
12.86667	-33
12.87500	-32
12.88333	-31
12.89167	-30
12.90000	-29
12.90833	-28
12.91667	-26
12.92500	-25
12.93333	-24
12.94167	-23
12.95000	-21
12.95833	-19
12.96667	-17
12.97500	-15
12.98333	-13
12.99167	-11
13.00000	-9
13.00833	-7
13.01667	-4
13.02500	-2
13.03333	-0
13.04167	1
13.05000	2
13.05833	4
13.06667	4
13.07500	5
13.08333	5
13.09167	6
13.10000	6
13.10833	6
13.11667	6
13.12500	6
13.13333	5
13.14167	5
13.15000	4
13.15833	3
13.16667	2
13.17500	0
13.18333	-1
13.19167	-2
13.20000	-4
13.20833	-5
13.21667	-6
13.22500	-8
13.23333	-10
13.24167	-11
13.25000	-12
13.25833	-13
13.26667	-13
13.27500	-14
13.28333	-14
13.29167	-14
13.30000	-14
13.30833	-15
13.31667	-15
13.32500	-15
13.33333	-14
13.34167	-14
13.35000	-14
13.35833	-13
13.36667	-13
13.37500	-13
13.38333	-12
13.39167	-12
13.40000	-12
13.40833	-11
13.41667	-11
13.42500	-10
13.43333	-9
13.44167	-9
13.45000	-8
13.45833	-7
13.46667	-6
13.47500	-5
13.48333	-4
13.49167	-3
13.50000	-2
13.50833	-1
13.51667	1
13.52500	3
13.53333	4
13.54167	6
13.55000	9
13.55833	11
13.56667	14
13.57500	18
13.58333	22
13.59167	27
13.60000	33
13.60833	38
13.61667	45
13.62500	53
13.63333	60
13.64167	68
13.65000	77
13.65833	86
13.66667	96
13.67500	105
13.68333	114
13.69167	124
13.70000	133
13.70833	141
13.71667	150
13.72500	158
13.73333	166
13.74167	173
13.75000	179
13.75833	185
13.76667	190
13.77500	195
13.78333	199
13.79167	203
13.80000	207
13.80833	210
13.81667	214
13.82500	217
13.83333	220
13.84167	223
13.85000	227
13.85833	231
13.86667	235
13.87500	239
13.88333	244
13.89167	249
13.90000	255
13.90833	260
13.91667	265
13.92500	270
13.93333	274
13.94167	278
13.95000	281
13.95833	284
13.96667	285
13.97500	285
13.98333	285
13.99167	283
14.00000	280
14.00833	276
14.01667	270
14.02500	263
14.03333	256
14.04167	248
14.05000	238
14.05833	228
14.06667	217
14.07500	206
14.08333	195
14.09167	184
14.10000	173
14.10833	162
14.11667	151
14.12500	141
14.13333	130
14.14167	120
14.15000	111
14.15833	101
14.16667	93
14.17500	84
14.18333	76
14.19167	69
14.20000	62
14.20833	56
14.21667	50
14.22500	44
14.23333	39
14.24167	35
14.25000	32
14.25833	29
14.26667	26
14.27500	23
14.28333	20
14.29167	18
14.30000	15
14.30833	14
14.31667	12
14.32500	11
14.33333	9
14.34167	9
14.35000	8
14.35833	7
14.36667	7
14.37500	6
14.38333	6
14.39167	5
14.40000	5
14.40833	5
14.41667	5
14.42500	5
14.43333	5
14.44167	5
14.45000	5
14.45833	4
14.46667	4
14.47500	4
14.48333	4
14.49167	4
14.50000	4
14.50833	4
14.51667	4
14.52500	4
14.53333	4
14.54167	4
14.55000	4
14.55833	4
14.56667	4
14.57500	4
14.58333	3
14.59167	3
14.60000	2
14.60833	1
14.61667	0
14.62500	-0
14.63333	-1
14.64167	-2
14.65000	-3
14.65833	-4
14.66667	-4
14.67500	-5
14.68333	-6
14.69167	-7
14.70000	-7
14.70833	-8
14.71667	-9
14.72500	-10
14.73333	-11
14.74167	-12
14.75000	-12
14.75833	-13
14.76667	-14
14.77500	-15
14.78333	-16
14.79167	-16
14.80000	-16
14.80833	-16
14.81667	-17
14.82500	-17
14.83333	-17
14.84167	-18
14.85000	-18
14.85833	-18
14.86667	-18
14.87500	-19
14.88333	-19
14.89167	-19
14.90000	-19
14.90833	-19
14.91667	-19
14.92500	-19
14.93333	-19
14.94167	-19
14.95000	-19
14.95833	-18
14.96667	-18
14.97500	-18
14.98333	-17
14.99167	-17
15.00000	-16
15.00833	-15
15.01667	-13
15.02500	-12
15.03333	-10
15.04167	-8
15.05000	-6
15.05833	-4
15.06667	-2
15.07500	1
15.08333	4
15.09167	8
15.10000	12
15.10833	17
15.11667	23
15.12500	29
15.13333	35
15.14167	42
15.15000	49
15.15833	56
15.16667	63
15.17500	71
15.18333	78
15.19167	86
15.20000	94
15.20833	102
15.21667	109
15.22500	116
15.23333	123
15.24167	130
15.25000	136
15.25833	141
15.26667	145
15.27500	149
15.28333	151
15.29167	152
15.30000	153
15.30833	152
15.31667	151
15.32500	149
15.33333	146
15.34167	142
15.35000	137
15.35833	131
15.36667	125
15.37500	119
15.38333	112
15.39167	105
15.40000	98
15.40833	91
15.41667	83
15.42500	76
15.43333	69
15.44167	63
15.45000	56
15.45833	50
15.46667	43
15.47500	38
15.48333	33
15.49167	28
15.50000	23
15.50833	19
15.51667	15
15.52500	11
15.53333	8
15.54167	6
15.55000	3
15.55833	1
15.56667	-1
15.57500	-3
15.58333	-4
15.59167	-6
15.60000	-7
15.60833	-8
15.61667	-9
15.62500	-9
15.63333	-9
15.64167	-9
15.65000	-9
15.65833	-9
15.66667	-8
15.67500	-7
15.68333	-6
15.69167	-5
15.70000	-5
15.70833	-4
15.71667	-2
15.72500	-1
15.73333	0
15.74167	1
15.75000	2
15.75833	4
15.76667	5
15.77500	6
15.78333	8
15.79167	9
15.80000	11
15.80833	13
15.81667	14
15.82500	16
15.83333	17
15.84167	19
15.85000	20
15.85833	22
15.86667	24
15.87500	26
15.88333	27
15.89167	30
15.90000	32
15.90833	35
15.91667	38
15.92500	41
15.93333	45
15.94167	49
15.95000	54
15.95833	59
15.96667	65
15.97500	71
15.98333	78
15.99167	86
16.00000	94
16.00833	102
16.01667	111
16.02500	121
16.03333	131
16.04167	142
16.05000	153
16.05833	165
16.06667	176
16.07500	187
16.08333	197
16.09167	207
16.10000	217
16.10833	226
16.11667	234
16.12500	242
16.13333	249
16.14167	255
16.15000	260
16.15833	264
16.16667	267
16.17500	269
16.18333	270
16.19167	269
16.20000	268
16.20833	266
16.21667	263
16.22500	259
16.23333	255
16.24167	250
16.25000	245
16.25833	240
16.26667	235
16.27500	230
16.28333	226
16.29167	222
16.30000	218
16.30833	216
16.31667	214
16.32500	212
16.33333	212
16.34167	212
16.35000	213
16.35833	215
16.36667	218
16.37500	222
16.38333	227
16.39167	234
16.40000	241
16.40833	250
16.41667	260
16.42500	271
16.43333	283
16.44167	296
16.45000	311
16.45833	328
16.46667	346
16.47500	365
16.48333	385
16.49167	407
16.50000	430
16.50833	454
16.51667	479
16.52500	504
16.53333	531
16.54167	558
16.55000	585
16.55833	612
16.56667	640
16.57500	667
16.58333	693
16.59167	719
16.60000	743
16.60833	766
16.61667	787
16.62500	806
16.63333	822
16.64167	835
16.65000	846
16.65833	853
16.66667	858
16.67500	860
16.68333	858
16.69167	854
16.70000	846
16.70833	836
16.71667	823
16.72500	807
16.73333	789
16.74167	769
16.75000	747
16.75833	724
16.76667	699
16.77500	673
16.78333	647
16.79167	619
16.80000	592
16.80833	564
16.81667	537
16.82500	510
16.83333	484
16.84167	458
16.85000	434
16.85833	411
16.86667	388
16.87500	367
16.88333	346
16.89167	326
16.90000	308
16.90833	291
16.91667	275
16.92500	260
16.93333	247
16.94167	234
16.95000	221
16.95833	210
16.96667	200
16.97500	190
16.98333	180
16.99167	172
17.00000	164
17.00833	156
17.01667	149
17.02500	142
17.03333	136
17.04167	130
17.05000	124
17.05833	119
17.06667	114
17.07500	110
17.08333	105
17.09167	101
17.10000	98
17.10833	94
17.11667	90
17.12500	87
17.13333	83
17.14167	80
17.15000	78
17.15833	75
17.16667	73
17.17500	70
17.18333	68
17.19167	66
17.20000	64
17.20833	62
17.21667	60
17.22500	58
17.23333	56
17.24167	55
17.25000	53
17.25833	51
17.26667	49
17.27500	48
17.28333	47
17.29167	45
17.30000	44
17.30833	43
17.31667	42
17.32500	41
17.33333	41
17.34167	40
17.35000	40
17.35833	39
17.36667	39
17.37500	39
17.38333	38
17.39167	38
17.40000	38
17.40833	38
17.41667	38
17.42500	38
17.43333	38
17.44167	38
17.45000	39
17.45833	39
17.46667	40
17.47500	41
17.48333	41
17.49167	42
17.50000	43
17.50833	44
17.51667	45
17.52500	46
17.53333	47
17.54167	48
17.55000	50
17.55833	51
17.56667	53
17.57500	55
17.58333	57
17.59167	60
17.60000	62
17.60833	65
17.61667	69
17.62500	72
17.63333	76
17.64167	81
17.65000	85
17.65833	90
17.66667	95
17.67500	101
17.68333	108
17.69167	116
17.70000	124
17.70833	132
17.71667	142
17.72500	152
17.73333	163
17.74167	176
17.75000	190
17.75833	205
17.76667	221
17.77500	239
17.78333	259
17.79167	280
17.80000	304
17.80833	331
17.81667	360
17.82500	392
17.83333	428
17.84167	466
17.85000	509
17.85833	557
17.86667	609
17.87500	666
17.88333	728
17.89167	796
17.90000	870
17.90833	951
17.91667	1039
17.92500	1133
17.93333	1235
17.94167	1344
17.95000	1460
17.95833	1584
17.96667	1714
17.97500	1851
17.98333	1993
17.99167	2141
18.00000	2293
18.00833	2448
18.01667	2606
18.02500	2766
18.03333	2925
18.04167	3083
18.05000	3238
18.05833	3387
18.06667	3531
18.07500	3667
18.08333	3793
18.09167	3909
18.10000	4013
18.10833	4103
18.11667	4179
18.12500	4241
18.13333	4286
18.14167	4316
18.15000	4329
18.15833	4325
18.16667	4305
18.17500	4269
18.18333	4218
18.19167	4153
18.20000	4075
18.20833	3984
18.21667	3882
18.22500	3770
18.23333	3650
18.24167	3522
18.25000	3389
18.25833	3251
18.26667	3110
18.27500	2967
18.28333	2823
18.29167	2680
18.30000	2539
18.30833	2400
18.31667	2264
18.32500	2132
18.33333	2005
18.34167	1882
18.35000	1765
18.35833	1653
18.36667	1547
18.37500	1446
18.38333	1351
18.39167	1261
18.40000	1178
18.40833	1100
18.41667	1028
18.42500	960
18.43333	898
18.44167	840
18.45000	786
18.45833	736
18.46667	691
18.47500	649
18.48333	610
18.49167	575
18.50000	542
18.50833	512
18.51667	485
18.52500	460
18.53333	438
18.54167	417
18.55000	398
18.55833	381
18.56667	365
18.57500	351
18.58333	339
18.59167	327
18.60000	317
18.60833	308
18.61667	301
18.62500	295
18.63333	289
18.64167	285
18.65000	281
18.65833	279
18.66667	278
18.67500	277
18.68333	278
18.69167	279
18.70000	282
18.70833	285
18.71667	288
18.72500	293
18.73333	298
18.74167	304
18.75000	311
18.75833	319
18.76667	327
18.77500	335
18.78333	345
18.79167	354
18.80000	364
18.80833	374
18.81667	384
18.82500	394
18.83333	404
18.84167	414
18.85000	424
18.85833	433
18.86667	442
18.87500	451
18.88333	459
18.89167	466
18.90000	472
18.90833	477
18.91667	481
18.92500	484
18.93333	486
18.94167	488
18.95000	489
18.95833	488
18.96667	487
18.97500	484
18.98333	480
18.99167	476
19.00000	470
19.00833	463
19.01667	456
19.02500	448
19.03333	440
19.04167	431
19.05000	422
19.05833	413
19.06667	403
19.07500	393
19.08333	383
19.09167	373
19.10000	363
19.10833	353
19.11667	343
19.12500	334
19.13333	325
19.14167	316
19.15000	308
19.15833	300
19.16667	292
19.17500	284
19.18333	277
19.19167	271
19.20000	265
19.20833	259
19.21667	254
19.22500	249
19.23333	245
19.24167	241
19.25000	237
19.25833	233
19.26667	230
19.27500	228
19.28333	225
19.29167	223
19.30000	221
19.30833	219
19.31667	218
19.32500	217
19.33333	216
19.34167	216
19.35000	215
19.35833	215
19.36667	215
19.37500	215
19.38333	215
19.39167	215
19.40000	215
19.40833	216
19.41667	217
19.42500	217
19.43333	218
19.44167	219
19.45000	219
19.45833	220
19.46667	221
19.47500	222
19.48333	223
19.49167	223
19.50000	224
19.50833	225
19.51667	227
19.52500	227
19.53333	228
19.54167	229
19.55000	229
19.55833	230
19.56667	231
19.57500	232
19.58333	232
19.59167	233
19.60000	234
19.60833	235
19.61667	235
19.62500	236
19.63333	237
19.64167	237
19.65000	238
19.65833	238
19.66667	239
19.67500	240
19.68333	240
19.69167	241
19.70000	241
19.70833	241
19.71667	241
19.72500	241
19.73333	241
19.74167	241
19.75000	242
19.75833	243
19.76667	243
19.77500	244
19.78333	244
19.79167	245
19.80000	245
19.80833	245
19.81667	245
19.82500	246
19.83333	246
19.84167	246
19.85000	247
19.85833	247
19.86667	248
19.87500	248
19.88333	248
19.89167	249
19.90000	249
19.90833	250
19.91667	250
19.92500	250
19.93333	251
19.94167	251
19.95000	252
19.95833	252
19.96667	253
19.97500	253
19.98333	254
19.99167	254
20.00000	255
20.00833	256
20.01667	256
20.02500	257
20.03333	258
20.04167	258
20.05000	259
20.05833	260
20.06667	261
20.07500	262
20.08333	263
20.09167	264
20.10000	264
20.10833	265
20.11667	266
20.12500	267
20.13333	268
20.14167	269
20.15000	270
20.15833	270
20.16667	271
20.17500	272
20.18333	273
20.19167	274
20.20000	275
20.20833	276
20.21667	277
20.22500	279
20.23333	280
20.24167	281
20.25000	282
20.25833	283
20.26667	285
20.27500	286
20.28333	287
20.29167	289
20.30000	290
20.30833	291
20.31667	293
20.32500	295
20.33333	297
20.34167	299
20.35000	302
20.35833	304
20.36667	307
20.37500	309
20.38333	311
20.39167	314
20.40000	317
20.40833	321
20.41667	324
20.42500	327
20.43333	331
20.44167	335
20.45000	339
20.45833	343
20.46667	347
20.47500	352
20.48333	357
20.49167	362
20.50000	368
20.50833	375
20.51667	381
20.52500	389
20.53333	396
20.54167	404
20.55000	412
20.55833	421
20.56667	430
20.57500	440
20.58333	452
20.59167	463
20.60000	476
20.60833	490
20.61667	505
20.62500	521
20.63333	537
20.64167	555
20.65000	574
20.65833	595
20.66667	616
20.67500	639
20.68333	664
20.69167	689
20.70000	717
20.70833	745
20.71667	775
20.72500	806
20.73333	838
20.74167	872
20.75000	906
20.75833	943
20.76667	980
20.77500	1018
20.78333	1056
20.79167	1095
20.80000	1134
20.80833	1173
20.81667	1213
20.82500	1252
20.83333	1292
20.84167	1331
20.85000	1370
20.85833	1409
20.86667	1447
20.87500	1484
20.88333	1520
20.89167	1555
20.90000	1590
20.90833	1623
20.91667	1656
20.92500	1688
20.93333	1719
20.94167	1749
20.95000	1778
20.95833	1806
20.96667	1834
20.97500	1861
20.98333	1888
20.99167	1915
21.00000	1942
21.00833	1970
21.01667	1999
21.02500	2028
21.03333	2059
21.04167	2092
21.05000	2125
21.05833	2161
21.06667	2199
21.07500	2240
21.08333	2286
21.09167	2335
21.10000	2388
21.10833	2446
21.11667	2509
21.12500	2579
21.13333	2654
21.14167	2737
21.15000	2827
21.15833	2926
21.16667	3033
21.17500	3150
21.18333	3278
21.19167	3416
21.20000	3566
21.20833	3728
21.21667	3904
21.22500	4093
21.23333	4296
21.24167	4513
21.25000	4745
21.25833	4992
21.26667	5254
21.27500	5531
21.28333	5823
21.29167	6129
21.30000	6448
21.30833	6781
21.31667	7126
21.32500	7483
21.33333	7850
21.34167	8225
21.35000	8607
21.35833	8994
21.36667	9384
21.37500	9774
21.38333	10164
21.39167	10549
21.40000	10929
21.40833	11301
21.41667	11661
21.42500	12008
21.43333	12340
21.44167	12653
21.45000	12947
21.45833	13217
21.46667	13463
21.47500	13683
21.48333	13875
21.49167	14038
21.50000	14171
21.50833	14272
21.51667	14342
21.52500	14380
21.53333	14386
21.54167	14361
21.55000	14303
21.55833	14215
21.56667	14098
21.57500	13951
21.58333	13777
21.59167	13577
21.60000	13352
21.60833	13105
21.61667	12838
21.62500	12551
21.63333	12248
21.64167	11930
21.65000	11599
21.65833	11257
21.66667	10908
21.67500	10552
21.68333	10191
21.69167	9828
21.70000	9463
21.70833	9100
21.71667	8738
21.72500	8379
21.73333	8026
21.74167	7678
21.75000	7338
21.75833	7005
21.76667	6681
21.77500	6366
21.78333	6061
21.79167	5766
21.80000	5482
21.80833	5209
21.81667	4947
21.82500	4697
21.83333	4457
21.84167	4229
21.85000	4011
21.85833	3804
21.86667	3607
21.87500	3420
21.88333	3243
21.89167	3076
21.90000	2918
21.90833	2769
21.91667	2628
21.92500	2496
21.93333	2370
21.94167	2252
21.95000	2141
21.95833	2037
21.96667	1939
21.97500	1847
21.98333	1760
21.99167	1679
22.00000	1603
22.00833	1532
22.01667	1465
22.02500	1403
22.03333	1344
22.04167	1290
22.05000	1240
22.05833	1192
22.06667	1148
22.07500	1106
22.08333	1068
22.09167	1031
22.10000	998
22.10833	967
22.11667	938
22.12500	912
22.13333	888
22.14167	866
22.15000	845
22.15833	826
22.16667	809
22.17500	794
22.18333	779
22.19167	767
22.20000	755
22.20833	745
22.21667	736
22.22500	727
22.23333	720
22.24167	713
22.25000	707
22.25833	702
22.26667	697
22.27500	693
22.28333	690
22.29167	687
22.30000	684
22.30833	681
22.31667	679
22.32500	676
22.33333	674
22.34167	672
22.35000	670
22.35833	668
22.36667	665
22.37500	663
22.38333	661
22.39167	659
22.40000	656
22.40833	653
22.41667	649
22.42500	646
22.43333	642
22.44167	639
22.45000	634
22.45833	630
22.46667	626
22.47500	621
22.48333	616
22.49167	611
22.50000	605
22.50833	599
22.51667	592
22.52500	586
22.53333	579
22.54167	572
22.55000	566
22.55833	559
22.56667	551
22.57500	543
22.58333	535
22.59167	527
22.60000	520
22.60833	512
22.61667	504
22.62500	497
22.63333	489
22.64167	481
22.65000	473
22.65833	465
22.66667	458
22.67500	451
22.68333	444
22.69167	437
22.70000	431
22.70833	425
22.71667	419
22.72500	413
22.73333	408
22.74167	403
22.75000	398
22.75833	393
22.76667	389
22.77500	386
22.78333	382
22.79167	380
22.80000	377
22.80833	375
22.81667	373
22.82500	371
22.83333	369
22.84167	368
22.85000	367
22.85833	367
22.86667	367
22.87500	367
22.88333	367
22.89167	368
22.90000	369
22.90833	370
22.91667	372
22.92500	374
22.93333	376
22.94167	378
22.95000	380
22.95833	383
22.96667	386
22.97500	389
22.98333	391
22.99167	394
23.00000	397
23.00833	399
23.01667	402
23.02500	405
23.03333	408
23.04167	411
23.05000	414
23.05833	417
23.06667	420
23.07500	422
23.08333	425
23.09167	427
23.10000	430
23.10833	432
23.11667	434
23.12500	437
23.13333	438
23.14167	440
23.15000	442
23.15833	443
23.16667	444
23.17500	444
23.18333	445
23.19167	446
23.20000	447
23.20833	447
23.21667	448
23.22500	448
23.23333	448
23.24167	448
23.25000	448
23.25833	448
23.26667	448
23.27500	447
23.28333	446
23.29167	446
23.30000	445
23.30833	444
23.31667	444
23.32500	443
23.33333	442
23.34167	441
23.35000	441
23.35833	440
23.36667	439
23.37500	438
23.38333	437
23.39167	436
23.40000	435
23.40833	434
23.41667	433
23.42500	432
23.43333	432
23.44167	431
23.45000	430
23.45833	430
23.46667	429
23.47500	428
23.48333	427
23.49167	426
23.50000	426
23.50833	425
23.51667	425
23.52500	425
23.53333	424
23.54167	423
23.55000	423
23.55833	422
23.56667	422
23.57500	421
23.58333	421
23.59167	421
23.60000	421
23.60833	421
23.61667	421
23.62500	421
23.63333	420
23.64167	420
23.65000	420
23.65833	420
23.66667	420
23.67500	420
23.68333	420
23.69167	420
23.70000	420
23.70833	420
23.71667	419
23.72500	419
23.73333	419
23.74167	419
23.75000	419
23.75833	419
23.76667	419
23.77500	420
23.78333	420
23.79167	419
23.80000	419
23.80833	419
23.81667	420
23.82500	420
23.83333	421
23.84167	420
23.85000	420
23.85833	420
23.86667	420
23.87500	420
23.88333	420
23.89167	420
23.90000	420
23.90833	420
23.91667	420
23.92500	420
23.93333	420
23.94167	420
23.95000	420
23.95833	420
23.96667	420
23.97500	420
23.98333	420
23.99167	419
24.00000	419
24.00833	419
24.01667	418
24.02500	418
24.03333	418
24.04167	418
24.05000	418
24.05833	418
24.06667	418
24.07500	418
24.08333	417
24.09167	417
24.10000	417
24.10833	416
24.11667	416
24.12500	415
24.13333	414
24.14167	414
24.15000	412
24.15833	411
24.16667	410
24.17500	409
24.18333	408
24.19167	407
24.20000	406
24.20833	405
24.21667	403
24.22500	402
24.23333	400
24.24167	398
24.25000	396
24.25833	394
24.26667	392
24.27500	390
24.28333	388
24.29167	386
24.30000	384
24.30833	383
24.31667	381
24.32500	379
24.33333	377
24.34167	375
24.35000	373
24.35833	371
24.36667	370
24.37500	368
24.38333	366
24.39167	364
24.40000	361
24.40833	359
24.41667	357
24.42500	356
24.43333	355
24.44167	354
24.45000	352
24.45833	351
24.46667	350
24.47500	349
24.48333	348
24.49167	346
24.50000	345
24.50833	344
24.51667	343
24.52500	343
24.53333	342
24.54167	341
24.55000	341
24.55833	340
24.56667	339
24.57500	338
24.58333	338
24.59167	338
24.60000	337
24.60833	337
24.61667	337
24.62500	336
24.63333	336
24.64167	336
24.65000	336
24.65833	336
24.66667	336
24.67500	336
24.68333	337
24.69167	337
24.70000	337
24.70833	337
24.71667	337
24.72500	336
24.73333	336
24.74167	336
24.75000	336
24.75833	336
24.76667	337
24.77500	337
24.78333	337
24.79167	337
24.80000	338
24.80833	338
24.81667	338
24.82500	338
24.83333	338
24.84167	338
24.85000	339
24.85833	339
24.86667	339
24.87500	339
24.88333	339
24.89167	339
24.90000	340
24.90833	340
24.91667	340
24.92500	340
24.93333	340
24.94167	339
24.95000	339
24.95833	338
24.96667	338
24.97500	338
24.98333	337
24.99167	337
25.00000	337
25.00833	337
25.01667	337
25.02500	337
25.03333	336
25.04167	336
25.05000	335
25.05833	335
25.06667	335
25.07500	334
25.08333	334
25.09167	334
25.10000	334
25.10833	333
25.11667	333
25.12500	333
25.13333	333
25.14167	332
25.15000	332
25.15833	332
25.16667	331
25.17500	331
25.18333	330
25.19167	330
25.20000	329
25.20833	329
25.21667	329
25.22500	328
25.23333	328
25.24167	328
25.25000	327
25.25833	327
25.26667	327
25.27500	327
25.28333	327
25.29167	326
25.30000	325
25.30833	324
25.31667	323
25.32500	323
25.33333	322
25.34167	322
25.35000	322
25.35833	321
25.36667	321
25.37500	321
25.38333	321
25.39167	321
25.40000	320
25.40833	320
25.41667	320
25.42500	320
25.43333	319
25.44167	319
25.45000	319
25.45833	319
25.46667	319
25.47500	318
25.48333	318
25.49167	318
25.50000	318
25.50833	318
25.51667	318
25.52500	318
25.53333	318
25.54167	319
25.55000	319
25.55833	319
25.56667	319
25.57500	319
25.58333	320
25.59167	320
25.60000	320
25.60833	320
25.61667	320
25.62500	320
25.63333	320
25.64167	320
25.65000	320
25.65833	321
25.66667	321
25.67500	322
25.68333	322
25.69167	322
25.70000	322
25.70833	322
25.71667	322
25.72500	321
25.73333	321
25.74167	322
25.75000	322
25.75833	322
25.76667	322
25.77500	323
25.78333	323
25.79167	323
25.80000	323
25.80833	323
25.81667	323
25.82500	323
25.83333	323
25.84167	324
25.85000	324
25.85833	324
25.86667	324
25.87500	324
25.88333	325
25.89167	325
25.90000	326
25.90833	326
25.91667	327
25.92500	327
25.93333	328
25.94167	329
25.95000	331
25.95833	332
25.96667	334
25.97500	336
25.98333	337
25.99167	339
26.00000	342
26.00833	344
26.01667	347
26.02500	350
26.03333	353
26.04167	356
26.05000	360
26.05833	364
26.06667	368
26.07500	372
26.08333	377
26.09167	383
26.10000	389
26.10833	395
26.11667	402
26.12500	409
26.13333	417
26.14167	426
26.15000	435
26.15833	444
26.16667	454
26.17500	465
26.18333	477
26.19167	489
26.20000	502
26.20833	515
26.21667	529
26.22500	543
26.23333	559
26.24167	575
26.25000	592
26.25833	610
26.26667	629
26.27500	648
26.28333	668
26.29167	689
26.30000	711
26.30833	732
26.31667	754
26.32500	777
26.33333	800
26.34167	824
26.35000	847
26.35833	872
26.36667	896
26.37500	920
26.38333	944
26.39167	968
26.40000	992
26.40833	1016
26.41667	1038
26.42500	1060
26.43333	1081
26.44167	1101
26.45000	1120
26.45833	1138
26.46667	1155
26.47500	1171
26.48333	1186
26.49167	1199
26.50000	1210
26.50833	1221
26.51667	1229
26.52500	1235
26.53333	1240
26.54167	1243
26.55000	1244
26.55833	1243
26.56667	1240
26.57500	1236
26.58333	1230
26.59167	1222
26.60000	1212
26.60833	1201
26.61667	1189
26.62500	1175
26.63333	1160
26.64167	1143
26.65000	1125
26.65833	1106
26.66667	1086
26.67500	1065
26.68333	1043
26.69167	1021
26.70000	998
26.70833	975
26.71667	951
26.72500	927
26.73333	904
26.74167	880
26.75000	856
26.75833	832
26.76667	809
26.77500	785
26.78333	762
26.79167	740
26.80000	718
26.80833	697
26.81667	675
26.82500	655
26.83333	635
26.84167	616
26.85000	598
26.85833	580
26.86667	563
26.87500	546
26.88333	531
26.89167	515
26.90000	501
26.90833	487
26.91667	474
26.92500	461
26.93333	449
26.94167	437
26.95000	427
26.95833	416
26.96667	407
26.97500	397
26.98333	388
26.99167	380
27.00000	372
27.00833	364
27.01667	357
27.02500	350
27.03333	344
27.04167	338
27.05000	332
27.05833	327
27.06667	322
27.07500	317
27.08333	313
27.09167	308
27.10000	304
27.10833	299
27.11667	295
27.12500	292
27.13333	288
27.14167	284
27.15000	281
27.15833	278
27.16667	276
27.17500	273
27.18333	270
27.19167	268
27.20000	266
27.20833	264
27.21667	261
27.22500	259
27.23333	257
27.24167	255
27.25000	252
27.25833	250
27.26667	249
27.27500	247
27.28333	246
27.29167	244
27.30000	242
27.30833	240
27.31667	238
27.32500	237
27.33333	236
27.34167	234
27.35000	233
27.35833	232
27.36667	231
27.37500	230
27.38333	228
27.39167	227
27.40000	225
27.40833	224
27.41667	222
27.42500	221
27.43333	220
27.44167	219
27.45000	218
27.45833	216
27.46667	215
27.47500	214
27.48333	213
27.49167	212
27.50000	211
27.50833	210
27.51667	209
27.52500	208
27.53333	207
27.54167	206
27.55000	205
27.55833	204
27.56667	204
27.57500	203
27.58333	202
27.59167	201
27.60000	200
27.60833	199
27.61667	198
27.62500	196
27.63333	195
27.64167	194
27.65000	192
27.65833	191
27.66667	191
27.67500	190
27.68333	189
27.69167	188
27.70000	188
27.70833	187
27.71667	187
27.72500	186
27.73333	185
27.74167	185
27.75000	184
27.75833	182
27.76667	181
27.77500	180
27.78333	180
27.79167	179
27.80000	178
27.80833	177
27.81667	177
27.82500	176
27.83333	176
27.84167	175
27.85000	174
27.85833	174
27.86667	173
27.87500	172
27.88333	172
27.89167	171
27.90000	170
27.90833	170
27.91667	169
27.92500	169
27.93333	168
27.94167	168
27.95000	167
27.95833	166
27.96667	166
27.97500	165
27.98333	165
27.99167	164
28.00000	163

