R.Time (min)	Intensity
0.00000	-13
0.00833	-13
0.01667	-3
0.02500	-0
0.03333	-0
0.04167	-0
0.05000	-1
0.05833	-1
0.06667	-1
0.07500	-1
0.08333	-1
0.09167	-1
0.10000	-1
0.10833	-1
0.11667	-1
0.12500	-1
0.13333	-1
0.14167	-1
0.15000	-1
0.15833	-1
0.16667	-0
0.17500	-0
0.18333	-0
0.19167	-1
0.20000	-1
0.20833	-1
0.21667	-2
0.22500	-2
0.23333	-2
0.24167	-3
0.25000	-3
0.25833	-3
0.26667	-3
0.27500	-3
0.28333	-3
0.29167	-3
0.30000	-4
0.30833	-4
0.31667	-4
0.32500	-5
0.33333	-5
0.34167	-4
0.35000	-4
0.35833	-4
0.36667	-4
0.37500	-4
0.38333	-4
0.39167	-4
0.40000	-4
0.40833	-4
0.41667	-4
0.42500	-4
0.43333	-4
0.44167	-4
0.45000	-4
0.45833	-4
0.46667	-4
0.47500	-5
0.48333	-5
0.49167	-5
0.50000	-5
0.50833	-5
0.51667	-6
0.52500	-6
0.53333	-6
0.54167	-6
0.55000	-6
0.55833	-7
0.56667	-7
0.57500	-7
0.58333	-7
0.59167	-7
0.60000	-7
0.60833	-7
0.61667	-7
0.62500	-7
0.63333	-7
0.64167	-7
0.65000	-7
0.65833	-7
0.66667	-8
0.67500	-8
0.68333	-8
0.69167	-8
0.70000	-8
0.70833	-8
0.71667	-8
0.72500	-8
0.73333	-8
0.74167	-8
0.75000	-8
0.75833	-9
0.76667	-9
0.77500	-9
0.78333	-9
0.79167	-9
0.80000	-9
0.80833	-10
0.81667	-10
0.82500	-10
0.83333	-10
0.84167	-10
0.85000	-10
0.85833	-11
0.86667	-11
0.87500	-11
0.88333	-11
0.89167	-11
0.90000	-11
0.90833	-12
0.91667	-12
0.92500	-12
0.93333	-12
0.94167	-12
0.95000	-12
0.95833	-12
0.96667	-12
0.97500	-12
0.98333	-12
0.99167	-13
1.00000	-13
1.00833	-13
1.01667	-13
1.02500	-13
1.03333	-13
1.04167	-13
1.05000	-14
1.05833	-14
1.06667	-14
1.07500	-14
1.08333	-13
1.09167	-13
1.10000	-13
1.10833	-12
1.11667	-13
1.12500	-13
1.13333	-13
1.14167	-13
1.15000	-13
1.15833	-14
1.16667	-14
1.17500	-14
1.18333	-14
1.19167	-14
1.20000	-14
1.20833	-15
1.21667	-15
1.22500	-15
1.23333	-15
1.24167	-15
1.25000	-15
1.25833	-14
1.26667	-14
1.27500	-14
1.28333	-14
1.29167	-14
1.30000	-14
1.30833	-14
1.31667	-14
1.32500	-14
1.33333	-14
1.34167	-15
1.35000	-14
1.35833	-14
1.36667	-15
1.37500	-14
1.38333	-14
1.39167	-15
1.40000	-15
1.40833	-15
1.41667	-15
1.42500	-15
1.43333	-15
1.44167	-15
1.45000	-16
1.45833	-16
1.46667	-16
1.47500	-16
1.48333	-16
1.49167	-16
1.50000	-16
1.50833	-16
1.51667	-16
1.52500	-15
1.53333	-15
1.54167	-15
1.55000	-15
1.55833	-15
1.56667	-15
1.57500	-15
1.58333	-15
1.59167	-15
1.60000	-15
1.60833	-15
1.61667	-16
1.62500	-16
1.63333	-15
1.64167	-15
1.65000	-15
1.65833	-15
1.66667	-15
1.67500	-15
1.68333	-15
1.69167	-15
1.70000	-15
1.70833	-16
1.71667	-16
1.72500	-16
1.73333	-17
1.74167	-17
1.75000	-17
1.75833	-17
1.76667	-17
1.77500	-16
1.78333	-16
1.79167	-15
1.80000	-15
1.80833	-15
1.81667	-15
1.82500	-15
1.83333	-16
1.84167	-15
1.85000	-15
1.85833	-15
1.86667	-15
1.87500	-15
1.88333	-15
1.89167	-15
1.90000	-16
1.90833	-16
1.91667	-16
1.92500	-16
1.93333	-16
1.94167	-15
1.95000	-15
1.95833	-15
1.96667	-15
1.97500	-15
1.98333	-14
1.99167	-14
2.00000	-15
2.00833	-15
2.01667	-15
2.02500	-15
2.03333	-15
2.04167	-16
2.05000	-16
2.05833	-16
2.06667	-16
2.07500	-16
2.08333	-16
2.09167	-15
2.10000	-15
2.10833	-15
2.11667	-16
2.12500	-16
2.13333	-17
2.14167	-17
2.15000	-17
2.15833	-16
2.16667	-16
2.17500	-16
2.18333	-16
2.19167	-16
2.20000	-16
2.20833	-15
2.21667	-14
2.22500	-14
2.23333	-14
2.24167	-14
2.25000	-13
2.25833	-13
2.26667	-12
2.27500	-12
2.28333	-11
2.29167	-11
2.30000	-10
2.30833	-9
2.31667	-8
2.32500	-7
2.33333	-6
2.34167	-5
2.35000	-3
2.35833	-2
2.36667	-0
2.37500	1
2.38333	2
2.39167	4
2.40000	6
2.40833	8
2.41667	10
2.42500	12
2.43333	15
2.44167	17
2.45000	20
2.45833	23
2.46667	26
2.47500	28
2.48333	31
2.49167	34
2.50000	38
2.50833	41
2.51667	45
2.52500	49
2.53333	53
2.54167	57
2.55000	61
2.55833	66
2.56667	72
2.57500	78
2.58333	84
2.59167	90
2.60000	97
2.60833	103
2.61667	110
2.62500	117
2.63333	125
2.64167	133
2.65000	142
2.65833	151
2.66667	161
2.67500	171
2.68333	182
2.69167	193
2.70000	205
2.70833	218
2.71667	231
2.72500	245
2.73333	259
2.74167	275
2.75000	291
2.75833	307
2.76667	325
2.77500	344
2.78333	363
2.79167	384
2.80000	405
2.80833	428
2.81667	452
2.82500	477
2.83333	503
2.84167	531
2.85000	560
2.85833	591
2.86667	623
2.87500	657
2.88333	692
2.89167	730
2.90000	769
2.90833	810
2.91667	853
2.92500	897
2.93333	944
2.94167	993
2.95000	1045
2.95833	1099
2.96667	1155
2.97500	1214
2.98333	1274
2.99167	1337
3.00000	1403
3.00833	1471
3.01667	1541
3.02500	1614
3.03333	1689
3.04167	1766
3.05000	1846
3.05833	1927
3.06667	2011
3.07500	2096
3.08333	2183
3.09167	2272
3.10000	2363
3.10833	2454
3.11667	2547
3.12500	2641
3.13333	2736
3.14167	2831
3.15000	2927
3.15833	3022
3.16667	3117
3.17500	3212
3.18333	3306
3.19167	3398
3.20000	3488
3.20833	3577
3.21667	3663
3.22500	3747
3.23333	3828
3.24167	3907
3.25000	3982
3.25833	4053
3.26667	4120
3.27500	4182
3.28333	4240
3.29167	4293
3.30000	4341
3.30833	4384
3.31667	4422
3.32500	4453
3.33333	4479
3.34167	4499
3.35000	4513
3.35833	4521
3.36667	4523
3.37500	4520
3.38333	4510
3.39167	4495
3.40000	4474
3.40833	4446
3.41667	4414
3.42500	4375
3.43333	4331
3.44167	4282
3.45000	4228
3.45833	4170
3.46667	4106
3.47500	4039
3.48333	3968
3.49167	3893
3.50000	3815
3.50833	3733
3.51667	3649
3.52500	3563
3.53333	3474
3.54167	3384
3.55000	3292
3.55833	3199
3.56667	3105
3.57500	3010
3.58333	2916
3.59167	2820
3.60000	2725
3.60833	2631
3.61667	2537
3.62500	2444
3.63333	2352
3.64167	2261
3.65000	2172
3.65833	2084
3.66667	1998
3.67500	1915
3.68333	1833
3.69167	1754
3.70000	1676
3.70833	1600
3.71667	1527
3.72500	1456
3.73333	1387
3.74167	1321
3.75000	1258
3.75833	1197
3.76667	1139
3.77500	1083
3.78333	1029
3.79167	978
3.80000	929
3.80833	883
3.81667	838
3.82500	796
3.83333	756
3.84167	718
3.85000	682
3.85833	648
3.86667	616
3.87500	586
3.88333	558
3.89167	531
3.90000	506
3.90833	482
3.91667	460
3.92500	439
3.93333	419
3.94167	401
3.95000	383
3.95833	367
3.96667	351
3.97500	337
3.98333	323
3.99167	311
4.00000	300
4.00833	289
4.01667	279
4.02500	270
4.03333	261
4.04167	252
4.05000	244
4.05833	236
4.06667	229
4.07500	222
4.08333	216
4.09167	210
4.10000	204
4.10833	199
4.11667	193
4.12500	188
4.13333	183
4.14167	177
4.15000	173
4.15833	168
4.16667	164
4.17500	159
4.18333	155
4.19167	151
4.20000	146
4.20833	142
4.21667	138
4.22500	133
4.23333	129
4.24167	124
4.25000	120
4.25833	116
4.26667	112
4.27500	108
4.28333	105
4.29167	101
4.30000	97
4.30833	94
4.31667	90
4.32500	87
4.33333	84
4.34167	80
4.35000	77
4.35833	73
4.36667	70
4.37500	67
4.38333	63
4.39167	60
4.40000	57
4.40833	54
4.41667	51
4.42500	49
4.43333	47
4.44167	45
4.45000	43
4.45833	41
4.46667	39
4.47500	37
4.48333	35
4.49167	33
4.50000	31
4.50833	29
4.51667	28
4.52500	27
4.53333	26
4.54167	25
4.55000	24
4.55833	24
4.56667	23
4.57500	22
4.58333	21
4.59167	21
4.60000	20
4.60833	20
4.61667	20
4.62500	20
4.63333	20
4.64167	20
4.65000	21
4.65833	21
4.66667	21
4.67500	21
4.68333	20
4.69167	20
4.70000	20
4.70833	21
4.71667	21
4.72500	22
4.73333	22
4.74167	22
4.75000	23
4.75833	23
4.76667	24
4.77500	24
4.78333	25
4.79167	26
4.80000	26
4.80833	27
4.81667	27
4.82500	28
4.83333	28
4.84167	29
4.85000	30
4.85833	30
4.86667	31
4.87500	32
4.88333	32
4.89167	32
4.90000	33
4.90833	33
4.91667	33
4.92500	34
4.93333	34
4.94167	35
4.95000	36
4.95833	37
4.96667	38
4.97500	38
4.98333	39
4.99167	39
5.00000	40
5.00833	40
5.01667	41
5.02500	41
5.03333	41
5.04167	42
5.05000	42
5.05833	42
5.06667	42
5.07500	42
5.08333	42
5.09167	42
5.10000	42
5.10833	42
5.11667	42
5.12500	43
5.13333	43
5.14167	43
5.15000	43
5.15833	43
5.16667	43
5.17500	42
5.18333	42
5.19167	42
5.20000	42
5.20833	42
5.21667	42
5.22500	41
5.23333	41
5.24167	41
5.25000	40
5.25833	39
5.26667	39
5.27500	38
5.28333	38
5.29167	37
5.30000	37
5.30833	37
5.31667	36
5.32500	36
5.33333	35
5.34167	34
5.35000	33
5.35833	32
5.36667	32
5.37500	31
5.38333	30
5.39167	30
5.40000	29
5.40833	29
5.41667	28
5.42500	27
5.43333	26
5.44167	26
5.45000	25
5.45833	25
5.46667	24
5.47500	23
5.48333	23
5.49167	23
5.50000	22
5.50833	21
5.51667	20
5.52500	20
5.53333	19
5.54167	18
5.55000	18
5.55833	17
5.56667	17
5.57500	16
5.58333	15
5.59167	15
5.60000	15
5.60833	14
5.61667	13
5.62500	13
5.63333	12
5.64167	12
5.65000	11
5.65833	11
5.66667	11
5.67500	11
5.68333	10
5.69167	10
5.70000	10
5.70833	9
5.71667	9
5.72500	9
5.73333	9
5.74167	9
5.75000	9
5.75833	9
5.76667	9
5.77500	8
5.78333	8
5.79167	7
5.80000	7
5.80833	7
5.81667	6
5.82500	6
5.83333	5
5.84167	5
5.85000	4
5.85833	4
5.86667	4
5.87500	4
5.88333	4
5.89167	4
5.90000	4
5.90833	4
5.91667	4
5.92500	5
5.93333	4
5.94167	4
5.95000	4
5.95833	3
5.96667	3
5.97500	3
5.98333	3
5.99167	3
6.00000	2
6.00833	2
6.01667	2
6.02500	2
6.03333	2
6.04167	2
6.05000	2
6.05833	2
6.06667	2
6.07500	2
6.08333	2
6.09167	2
6.10000	2
6.10833	2
6.11667	2
6.12500	2
6.13333	2
6.14167	2
6.15000	2
6.15833	2
6.16667	3
6.17500	3
6.18333	3
6.19167	3
6.20000	3
6.20833	3
6.21667	3
6.22500	2
6.23333	2
6.24167	1
6.25000	1
6.25833	1
6.26667	1
6.27500	2
6.28333	2
6.29167	2
6.30000	1
6.30833	1
6.31667	1
6.32500	1
6.33333	1
6.34167	1
6.35000	2
6.35833	2
6.36667	2
6.37500	2
6.38333	2
6.39167	2
6.40000	2
6.40833	2
6.41667	2
6.42500	2
6.43333	2
6.44167	2
6.45000	2
6.45833	2
6.46667	2
6.47500	2
6.48333	2
6.49167	2
6.50000	2
6.50833	2
6.51667	2
6.52500	2
6.53333	2
6.54167	1
6.55000	1
6.55833	1
6.56667	1
6.57500	1
6.58333	1
6.59167	1
6.60000	1
6.60833	2
6.61667	2
6.62500	2
6.63333	2
6.64167	1
6.65000	1
6.65833	0
6.66667	-0
6.67500	-1
6.68333	-1
6.69167	-2
6.70000	-2
6.70833	-2
6.71667	-2
6.72500	-2
6.73333	-3
6.74167	-3
6.75000	-3
6.75833	-3
6.76667	-3
6.77500	-3
6.78333	-3
6.79167	-3
6.80000	-3
6.80833	-3
6.81667	-3
6.82500	-4
6.83333	-4
6.84167	-4
6.85000	-4
6.85833	-4
6.86667	-4
6.87500	-4
6.88333	-4
6.89167	-3
6.90000	-3
6.90833	-3
6.91667	-3
6.92500	-3
6.93333	-2
6.94167	-2
6.95000	-2
6.95833	-2
6.96667	-2
6.97500	-2
6.98333	-1
6.99167	-1
7.00000	-0
7.00833	0
7.01667	1
7.02500	2
7.03333	3
7.04167	4
7.05000	5
7.05833	7
7.06667	9
7.07500	11
7.08333	14
7.09167	17
7.10000	21
7.10833	26
7.11667	32
7.12500	40
7.13333	48
7.14167	57
7.15000	68
7.15833	80
7.16667	94
7.17500	109
7.18333	127
7.19167	147
7.20000	168
7.20833	190
7.21667	215
7.22500	241
7.23333	267
7.24167	295
7.25000	322
7.25833	349
7.26667	373
7.27500	394
7.28333	410
7.29167	420
7.30000	422
7.30833	414
7.31667	398
7.32500	374
7.33333	347
7.34167	323
7.35000	310
7.35833	322
7.36667	373
7.37500	479
7.38333	660
7.39167	935
7.40000	1322
7.40833	1837
7.41667	2495
7.42500	3305
7.43333	4272
7.44167	5392
7.45000	6656
7.45833	8046
7.46667	9533
7.47500	11081
7.48333	12642
7.49167	14161
7.50000	15579
7.50833	16833
7.51667	17865
7.52500	18625
7.53333	19076
7.54167	19199
7.55000	18998
7.55833	18492
7.56667	17720
7.57500	16732
7.58333	15584
7.59167	14337
7.60000	13047
7.60833	11762
7.61667	10523
7.62500	9360
7.63333	8292
7.64167	7332
7.65000	6481
7.65833	5738
7.66667	5096
7.67500	4546
7.68333	4077
7.69167	3678
7.70000	3338
7.70833	3048
7.71667	2799
7.72500	2583
7.73333	2395
7.74167	2229
7.75000	2081
7.75833	1950
7.76667	1831
7.77500	1722
7.78333	1623
7.79167	1532
7.80000	1448
7.80833	1369
7.81667	1295
7.82500	1226
7.83333	1161
7.84167	1100
7.85000	1042
7.85833	986
7.86667	934
7.87500	884
7.88333	837
7.89167	792
7.90000	750
7.90833	710
7.91667	673
7.92500	639
7.93333	606
7.94167	577
7.95000	551
7.95833	527
7.96667	507
7.97500	489
7.98333	473
7.99167	460
8.00000	448
8.00833	437
8.01667	428
8.02500	421
8.03333	414
8.04167	408
8.05000	402
8.05833	396
8.06667	390
8.07500	384
8.08333	377
8.09167	370
8.10000	362
8.10833	355
8.11667	347
8.12500	340
8.13333	332
8.14167	325
8.15000	317
8.15833	310
8.16667	303
8.17500	296
8.18333	289
8.19167	283
8.20000	277
8.20833	271
8.21667	266
8.22500	261
8.23333	257
8.24167	253
8.25000	250
8.25833	247
8.26667	245
8.27500	242
8.28333	240
8.29167	238
8.30000	236
8.30833	235
8.31667	233
8.32500	231
8.33333	230
8.34167	229
8.35000	228
8.35833	227
8.36667	226
8.37500	226
8.38333	225
8.39167	224
8.40000	223
8.40833	222
8.41667	221
8.42500	220
8.43333	219
8.44167	218
8.45000	217
8.45833	215
8.46667	213
8.47500	212
8.48333	210
8.49167	209
8.50000	207
8.50833	205
8.51667	203
8.52500	201
8.53333	200
8.54167	199
8.55000	198
8.55833	196
8.56667	195
8.57500	195
8.58333	194
8.59167	193
8.60000	192
8.60833	192
8.61667	191
8.62500	192
8.63333	192
8.64167	193
8.65000	194
8.65833	194
8.66667	196
8.67500	197
8.68333	199
8.69167	201
8.70000	203
8.70833	206
8.71667	209
8.72500	212
8.73333	216
8.74167	219
8.75000	223
8.75833	227
8.76667	231
8.77500	235
8.78333	239
8.79167	244
8.80000	249
8.80833	255
8.81667	261
8.82500	268
8.83333	276
8.84167	285
8.85000	296
8.85833	310
8.86667	326
8.87500	345
8.88333	368
8.89167	396
8.90000	430
8.90833	469
8.91667	516
8.92500	570
8.93333	633
8.94167	705
8.95000	786
8.95833	876
8.96667	975
8.97500	1081
8.98333	1194
8.99167	1313
9.00000	1434
9.00833	1557
9.01667	1680
9.02500	1799
9.03333	1912
9.04167	2017
9.05000	2113
9.05833	2195
9.06667	2264
9.07500	2317
9.08333	2354
9.09167	2373
9.10000	2376
9.10833	2363
9.11667	2334
9.12500	2290
9.13333	2233
9.14167	2164
9.15000	2086
9.15833	2001
9.16667	1910
9.17500	1815
9.18333	1718
9.19167	1621
9.20000	1525
9.20833	1431
9.21667	1340
9.22500	1254
9.23333	1172
9.24167	1096
9.25000	1025
9.25833	960
9.26667	901
9.27500	847
9.28333	799
9.29167	756
9.30000	718
9.30833	684
9.31667	656
9.32500	631
9.33333	610
9.34167	593
9.35000	579
9.35833	568
9.36667	561
9.37500	558
9.38333	559
9.39167	563
9.40000	572
9.40833	586
9.41667	606
9.42500	635
9.43333	672
9.44167	720
9.45000	781
9.45833	858
9.46667	954
9.47500	1072
9.48333	1217
9.49167	1394
9.50000	1607
9.50833	1861
9.51667	2163
9.52500	2516
9.53333	2926
9.54167	3397
9.55000	3932
9.55833	4532
9.56667	5199
9.57500	5930
9.58333	6723
9.59167	7572
9.60000	8469
9.60833	9407
9.61667	10373
9.62500	11354
9.63333	12338
9.64167	13307
9.65000	14249
9.65833	15147
9.66667	15986
9.67500	16754
9.68333	17440
9.69167	18033
9.70000	18527
9.70833	18918
9.71667	19203
9.72500	19385
9.73333	19466
9.74167	19454
9.75000	19356
9.75833	19183
9.76667	18946
9.77500	18658
9.78333	18331
9.79167	17977
9.80000	17609
9.80833	17239
9.81667	16878
9.82500	16536
9.83333	16221
9.84167	15941
9.85000	15702
9.85833	15508
9.86667	15364
9.87500	15272
9.88333	15232
9.89167	15244
9.90000	15309
9.90833	15426
9.91667	15592
9.92500	15804
9.93333	16062
9.94167	16360
9.95000	16697
9.95833	17069
9.96667	17473
9.97500	17906
9.98333	18363
9.99167	18843
10.00000	19340
10.00833	19851
10.01667	20373
10.02500	20899
10.03333	21423
10.04167	21933
10.05000	22413
10.05833	22843
10.06667	23192
10.07500	23426
10.08333	23507
10.09167	23397
10.10000	23066
10.10833	22491
10.11667	21671
10.12500	20619
10.13333	19368
10.14167	17962
10.15000	16453
10.15833	14899
10.16667	13351
10.17500	11853
10.18333	10443
10.19167	9142
10.20000	7967
10.20833	6922
10.21667	6006
10.22500	5211
10.23333	4530
10.24167	3949
10.25000	3457
10.25833	3041
10.26667	2691
10.27500	2395
10.28333	2146
10.29167	1936
10.30000	1758
10.30833	1606
10.31667	1475
10.32500	1362
10.33333	1263
10.34167	1177
10.35000	1100
10.35833	1031
10.36667	969
10.37500	913
10.38333	861
10.39167	814
10.40000	771
10.40833	731
10.41667	694
10.42500	660
10.43333	628
10.44167	599
10.45000	572
10.45833	548
10.46667	526
10.47500	507
10.48333	489
10.49167	474
10.50000	462
10.50833	451
10.51667	443
10.52500	436
10.53333	431
10.54167	428
10.55000	427
10.55833	427
10.56667	427
10.57500	429
10.58333	430
10.59167	432
10.60000	434
10.60833	436
10.61667	437
10.62500	437
10.63333	436
10.64167	434
10.65000	430
10.65833	426
10.66667	420
10.67500	413
10.68333	406
10.69167	398
10.70000	389
10.70833	379
10.71667	370
10.72500	361
10.73333	352
10.74167	344
10.75000	337
10.75833	331
10.76667	327
10.77500	324
10.78333	322
10.79167	323
10.80000	325
10.80833	329
10.81667	335
10.82500	342
10.83333	350
10.84167	360
10.85000	370
10.85833	381
10.86667	392
10.87500	402
10.88333	412
10.89167	421
10.90000	429
10.90833	436
10.91667	440
10.92500	444
10.93333	445
10.94167	445
10.95000	442
10.95833	438
10.96667	431
10.97500	423
10.98333	413
10.99167	402
11.00000	390
11.00833	377
11.01667	364
11.02500	351
11.03333	337
11.04167	324
11.05000	311
11.05833	299
11.06667	287
11.07500	276
11.08333	266
11.09167	258
11.10000	250
11.10833	242
11.11667	236
11.12500	231
11.13333	227
11.14167	225
11.15000	223
11.15833	222
11.16667	222
11.17500	223
11.18333	225
11.19167	227
11.20000	230
11.20833	233
11.21667	236
11.22500	239
11.23333	242
11.24167	246
11.25000	249
11.25833	253
11.26667	256
11.27500	258
11.28333	261
11.29167	262
11.30000	264
11.30833	264
11.31667	264
11.32500	263
11.33333	263
11.34167	261
11.35000	259
11.35833	257
11.36667	254
11.37500	251
11.38333	248
11.39167	244
11.40000	240
11.40833	236
11.41667	232
11.42500	228
11.43333	223
11.44167	219
11.45000	215
11.45833	211
11.46667	206
11.47500	202
11.48333	198
11.49167	195
11.50000	192
11.50833	189
11.51667	186
11.52500	183
11.53333	180
11.54167	178
11.55000	175
11.55833	173
11.56667	171
11.57500	169
11.58333	168
11.59167	166
11.60000	166
11.60833	165
11.61667	164
11.62500	164
11.63333	164
11.64167	164
11.65000	165
11.65833	166
11.66667	167
11.67500	169
11.68333	172
11.69167	174
11.70000	177
11.70833	180
11.71667	183
11.72500	187
11.73333	190
11.74167	193
11.75000	197
11.75833	200
11.76667	203
11.77500	206
11.78333	208
11.79167	210
11.80000	212
11.80833	212
11.81667	212
11.82500	212
11.83333	210
11.84167	208
11.85000	205
11.85833	202
11.86667	199
11.87500	195
11.88333	191
11.89167	186
11.90000	181
11.90833	175
11.91667	170
11.92500	165
11.93333	160
11.94167	155
11.95000	151
11.95833	147
11.96667	144
11.97500	139
11.98333	135
11.99167	132
12.00000	129
12.00833	126
12.01667	123
12.02500	121
12.03333	119
12.04167	118
12.05000	116
12.05833	116
12.06667	115
12.07500	115
12.08333	115
12.09167	114
12.10000	114
12.10833	114
12.11667	114
12.12500	114
12.13333	114
12.14167	114
12.15000	114
12.15833	114
12.16667	114
12.17500	114
12.18333	114
12.19167	114
12.20000	113
12.20833	113
12.21667	113
12.22500	112
12.23333	112
12.24167	112
12.25000	111
12.25833	110
12.26667	109
12.27500	107
12.28333	106
12.29167	105
12.30000	104
12.30833	102
12.31667	101
12.32500	99
12.33333	97
12.34167	95
12.35000	94
12.35833	93
12.36667	91
12.37500	90
12.38333	88
12.39167	86
12.40000	84
12.40833	83
12.41667	81
12.42500	80
12.43333	79
12.44167	77
12.45000	76
12.45833	75
12.46667	74
12.47500	73
12.48333	72
12.49167	71
12.50000	70
12.50833	70
12.51667	70
12.52500	69
12.53333	69
12.54167	68
12.55000	68
12.55833	68
12.56667	68
12.57500	69
12.58333	69
12.59167	70
12.60000	71
12.60833	72
12.61667	73
12.62500	74
12.63333	74
12.64167	75
12.65000	76
12.65833	77
12.66667	78
12.67500	80
12.68333	80
12.69167	81
12.70000	82
12.70833	83
12.71667	84
12.72500	85
12.73333	86
12.74167	87
12.75000	88
12.75833	89
12.76667	89
12.77500	90
12.78333	90
12.79167	90
12.80000	91
12.80833	91
12.81667	91
12.82500	91
12.83333	91
12.84167	91
12.85000	91
12.85833	91
12.86667	91
12.87500	92
12.88333	92
12.89167	93
12.90000	94
12.90833	94
12.91667	95
12.92500	95
12.93333	96
12.94167	97
12.95000	97
12.95833	98
12.96667	99
12.97500	100
12.98333	102
12.99167	103
13.00000	104
13.00833	105
13.01667	106
13.02500	107
13.03333	108
13.04167	109
13.05000	110
13.05833	111
13.06667	111
13.07500	112
13.08333	112
13.09167	113
13.10000	113
13.10833	114
13.11667	114
13.12500	114
13.13333	114
13.14167	114
13.15000	114
13.15833	114
13.16667	114
13.17500	114
13.18333	113
13.19167	112
13.20000	112
13.20833	111
13.21667	112
13.22500	112
13.23333	111
13.24167	111
13.25000	111
13.25833	112
13.26667	112
13.27500	112
13.28333	113
13.29167	113
13.30000	113
13.30833	114
13.31667	114
13.32500	114
13.33333	115
13.34167	116
13.35000	116
13.35833	117
13.36667	118
13.37500	118
13.38333	119
13.39167	120
13.40000	120
13.40833	121
13.41667	122
13.42500	123
13.43333	123
13.44167	124
13.45000	126
13.45833	127
13.46667	127
13.47500	128
13.48333	129
13.49167	130
13.50000	132
13.50833	133
13.51667	135
13.52500	136
13.53333	138
13.54167	141
13.55000	143
13.55833	146
13.56667	149
13.57500	153
13.58333	158
13.59167	162
13.60000	167
13.60833	173
13.61667	179
13.62500	185
13.63333	192
13.64167	199
13.65000	207
13.65833	216
13.66667	224
13.67500	233
13.68333	241
13.69167	250
13.70000	258
13.70833	267
13.71667	275
13.72500	283
13.73333	290
13.74167	297
13.75000	304
13.75833	311
13.76667	317
13.77500	322
13.78333	328
13.79167	333
13.80000	338
13.80833	343
13.81667	348
13.82500	353
13.83333	359
13.84167	365
13.85000	371
13.85833	378
13.86667	384
13.87500	391
13.88333	398
13.89167	406
13.90000	413
13.90833	421
13.91667	428
13.92500	435
13.93333	442
13.94167	448
13.95000	454
13.95833	458
13.96667	461
13.97500	463
13.98333	465
13.99167	465
14.00000	464
14.00833	463
14.01667	460
14.02500	456
14.03333	451
14.04167	445
14.05000	438
14.05833	431
14.06667	423
14.07500	415
14.08333	407
14.09167	399
14.10000	391
14.10833	382
14.11667	373
14.12500	365
14.13333	357
14.14167	350
14.15000	342
14.15833	336
14.16667	330
14.17500	324
14.18333	319
14.19167	314
14.20000	310
14.20833	306
14.21667	303
14.22500	300
14.23333	297
14.24167	295
14.25000	293
14.25833	291
14.26667	290
14.27500	289
14.28333	288
14.29167	288
14.30000	288
14.30833	288
14.31667	288
14.32500	289
14.33333	290
14.34167	291
14.35000	293
14.35833	294
14.36667	295
14.37500	296
14.38333	297
14.39167	299
14.40000	300
14.40833	302
14.41667	304
14.42500	305
14.43333	307
14.44167	308
14.45000	310
14.45833	311
14.46667	313
14.47500	314
14.48333	315
14.49167	316
14.50000	317
14.50833	318
14.51667	319
14.52500	320
14.53333	320
14.54167	320
14.55000	321
14.55833	321
14.56667	321
14.57500	321
14.58333	321
14.59167	321
14.60000	322
14.60833	322
14.61667	322
14.62500	321
14.63333	321
14.64167	320
14.65000	320
14.65833	319
14.66667	318
14.67500	317
14.68333	317
14.69167	317
14.70000	316
14.70833	315
14.71667	315
14.72500	314
14.73333	313
14.74167	313
14.75000	312
14.75833	312
14.76667	312
14.77500	311
14.78333	311
14.79167	311
14.80000	310
14.80833	310
14.81667	310
14.82500	309
14.83333	309
14.84167	309
14.85000	309
14.85833	309
14.86667	309
14.87500	309
14.88333	308
14.89167	308
14.90000	308
14.90833	307
14.91667	307
14.92500	307
14.93333	307
14.94167	306
14.95000	306
14.95833	306
14.96667	306
14.97500	305
14.98333	305
14.99167	305
15.00000	305
15.00833	305
15.01667	305
15.02500	306
15.03333	307
15.04167	308
15.05000	309
15.05833	310
15.06667	312
15.07500	314
15.08333	316
15.09167	319
15.10000	322
15.10833	326
15.11667	330
15.12500	335
15.13333	341
15.14167	346
15.15000	352
15.15833	358
15.16667	365
15.17500	372
15.18333	379
15.19167	386
15.20000	393
15.20833	400
15.21667	407
15.22500	413
15.23333	419
15.24167	424
15.25000	428
15.25833	432
15.26667	434
15.27500	437
15.28333	438
15.29167	439
15.30000	438
15.30833	436
15.31667	433
15.32500	429
15.33333	423
15.34167	417
15.35000	410
15.35833	403
15.36667	394
15.37500	386
15.38333	376
15.39167	366
15.40000	356
15.40833	345
15.41667	335
15.42500	325
15.43333	314
15.44167	304
15.45000	295
15.45833	285
15.46667	276
15.47500	267
15.48333	259
15.49167	251
15.50000	243
15.50833	236
15.51667	229
15.52500	222
15.53333	216
15.54167	210
15.55000	205
15.55833	200
15.56667	195
15.57500	191
15.58333	187
15.59167	183
15.60000	179
15.60833	176
15.61667	173
15.62500	170
15.63333	168
15.64167	166
15.65000	163
15.65833	161
15.66667	159
15.67500	157
15.68333	156
15.69167	155
15.70000	153
15.70833	152
15.71667	151
15.72500	151
15.73333	150
15.74167	150
15.75000	150
15.75833	150
15.76667	150
15.77500	150
15.78333	150
15.79167	150
15.80000	151
15.80833	151
15.81667	152
15.82500	153
15.83333	154
15.84167	155
15.85000	156
15.85833	157
15.86667	158
15.87500	160
15.88333	162
15.89167	163
15.90000	166
15.90833	169
15.91667	172
15.92500	176
15.93333	181
15.94167	186
15.95000	193
15.95833	200
15.96667	207
15.97500	216
15.98333	225
15.99167	235
16.00000	246
16.00833	258
16.01667	271
16.02500	284
16.03333	299
16.04167	313
16.05000	328
16.05833	343
16.06667	358
16.07500	372
16.08333	387
16.09167	401
16.10000	414
16.10833	427
16.11667	438
16.12500	448
16.13333	456
16.14167	464
16.15000	469
16.15833	474
16.16667	477
16.17500	478
16.18333	478
16.19167	476
16.20000	472
16.20833	468
16.21667	462
16.22500	455
16.23333	447
16.24167	438
16.25000	430
16.25833	421
16.26667	412
16.27500	403
16.28333	394
16.29167	386
16.30000	378
16.30833	371
16.31667	365
16.32500	360
16.33333	356
16.34167	354
16.35000	352
16.35833	351
16.36667	351
16.37500	353
16.38333	356
16.39167	360
16.40000	365
16.40833	373
16.41667	381
16.42500	391
16.43333	402
16.44167	415
16.45000	430
16.45833	446
16.46667	464
16.47500	483
16.48333	503
16.49167	525
16.50000	548
16.50833	573
16.51667	599
16.52500	625
16.53333	653
16.54167	682
16.55000	710
16.55833	739
16.56667	767
16.57500	796
16.58333	823
16.59167	850
16.60000	874
16.60833	897
16.61667	918
16.62500	937
16.63333	953
16.64167	966
16.65000	977
16.65833	984
16.66667	988
16.67500	988
16.68333	985
16.69167	979
16.70000	970
16.70833	957
16.71667	941
16.72500	923
16.73333	903
16.74167	879
16.75000	854
16.75833	827
16.76667	800
16.77500	771
16.78333	740
16.79167	710
16.80000	679
16.80833	649
16.81667	619
16.82500	590
16.83333	561
16.84167	533
16.85000	506
16.85833	480
16.86667	455
16.87500	431
16.88333	409
16.89167	388
16.90000	368
16.90833	349
16.91667	331
16.92500	315
16.93333	300
16.94167	286
16.95000	273
16.95833	261
16.96667	249
16.97500	239
16.98333	229
16.99167	221
17.00000	213
17.00833	205
17.01667	199
17.02500	193
17.03333	187
17.04167	182
17.05000	177
17.05833	173
17.06667	168
17.07500	164
17.08333	161
17.09167	157
17.10000	154
17.10833	151
17.11667	148
17.12500	146
17.13333	144
17.14167	142
17.15000	140
17.15833	138
17.16667	136
17.17500	135
17.18333	134
17.19167	132
17.20000	131
17.20833	130
17.21667	129
17.22500	128
17.23333	127
17.24167	126
17.25000	126
17.25833	125
17.26667	124
17.27500	123
17.28333	123
17.29167	122
17.30000	122
17.30833	122
17.31667	121
17.32500	121
17.33333	121
17.34167	121
17.35000	122
17.35833	121
17.36667	121
17.37500	121
17.38333	121
17.39167	121
17.40000	122
17.40833	122
17.41667	123
17.42500	123
17.43333	124
17.44167	124
17.45000	125
17.45833	126
17.46667	126
17.47500	127
17.48333	127
17.49167	128
17.50000	129
17.50833	130
17.51667	131
17.52500	132
17.53333	133
17.54167	134
17.55000	136
17.55833	138
17.56667	140
17.57500	142
17.58333	144
17.59167	146
17.60000	149
17.60833	151
17.61667	155
17.62500	158
17.63333	162
17.64167	166
17.65000	170
17.65833	175
17.66667	180
17.67500	186
17.68333	192
17.69167	199
17.70000	206
17.70833	215
17.71667	224
17.72500	234
17.73333	245
17.74167	257
17.75000	270
17.75833	285
17.76667	301
17.77500	318
17.78333	337
17.79167	358
17.80000	381
17.80833	406
17.81667	434
17.82500	465
17.83333	499
17.84167	537
17.85000	578
17.85833	623
17.86667	673
17.87500	727
17.88333	787
17.89167	852
17.90000	923
17.90833	1000
17.91667	1083
17.92500	1173
17.93333	1270
17.94167	1373
17.95000	1483
17.95833	1600
17.96667	1724
17.97500	1853
17.98333	1988
17.99167	2128
18.00000	2272
18.00833	2419
18.01667	2568
18.02500	2718
18.03333	2868
18.04167	3017
18.05000	3163
18.05833	3304
18.06667	3439
18.07500	3567
18.08333	3686
18.09167	3795
18.10000	3893
18.10833	3978
18.11667	4049
18.12500	4106
18.13333	4149
18.14167	4176
18.15000	4188
18.15833	4184
18.16667	4165
18.17500	4131
18.18333	4083
18.19167	4021
18.20000	3946
18.20833	3860
18.21667	3763
18.22500	3658
18.23333	3543
18.24167	3422
18.25000	3296
18.25833	3165
18.26667	3032
18.27500	2896
18.28333	2760
18.29167	2625
18.30000	2491
18.30833	2359
18.31667	2230
18.32500	2105
18.33333	1983
18.34167	1867
18.35000	1755
18.35833	1648
18.36667	1547
18.37500	1452
18.38333	1362
18.39167	1277
18.40000	1198
18.40833	1123
18.41667	1054
18.42500	990
18.43333	931
18.44167	876
18.45000	826
18.45833	779
18.46667	737
18.47500	697
18.48333	662
18.49167	629
18.50000	598
18.50833	570
18.51667	544
18.52500	520
18.53333	498
18.54167	479
18.55000	461
18.55833	445
18.56667	430
18.57500	417
18.58333	405
18.59167	395
18.60000	385
18.60833	377
18.61667	370
18.62500	364
18.63333	359
18.64167	355
18.65000	352
18.65833	350
18.66667	349
18.67500	349
18.68333	350
18.69167	351
18.70000	353
18.70833	356
18.71667	360
18.72500	364
18.73333	370
18.74167	376
18.75000	382
18.75833	389
18.76667	397
18.77500	405
18.78333	414
18.79167	423
18.80000	432
18.80833	441
18.81667	450
18.82500	460
18.83333	469
18.84167	479
18.85000	488
18.85833	497
18.86667	505
18.87500	513
18.88333	520
18.89167	526
18.90000	532
18.90833	537
18.91667	541
18.92500	543
18.93333	546
18.94167	547
18.95000	547
18.95833	546
18.96667	545
18.97500	542
18.98333	539
18.99167	534
19.00000	528
19.00833	521
19.01667	514
19.02500	507
19.03333	499
19.04167	491
19.05000	483
19.05833	474
19.06667	464
19.07500	455
19.08333	446
19.09167	436
19.10000	427
19.10833	418
19.11667	409
19.12500	400
19.13333	392
19.14167	384
19.15000	376
19.15833	368
19.16667	361
19.17500	354
19.18333	347
19.19167	342
19.20000	336
19.20833	331
19.21667	326
19.22500	321
19.23333	317
19.24167	313
19.25000	309
19.25833	306
19.26667	303
19.27500	300
19.28333	298
19.29167	296
19.30000	294
19.30833	293
19.31667	292
19.32500	291
19.33333	290
19.34167	289
19.35000	289
19.35833	288
19.36667	288
19.37500	288
19.38333	289
19.39167	289
19.40000	290
19.40833	290
19.41667	291
19.42500	292
19.43333	292
19.44167	293
19.45000	293
19.45833	294
19.46667	295
19.47500	296
19.48333	297
19.49167	298
19.50000	299
19.50833	300
19.51667	300
19.52500	301
19.53333	302
19.54167	303
19.55000	304
19.55833	305
19.56667	306
19.57500	307
19.58333	308
19.59167	309
19.60000	310
19.60833	310
19.61667	311
19.62500	311
19.63333	312
19.64167	312
19.65000	313
19.65833	314
19.66667	314
19.67500	314
19.68333	315
19.69167	315
19.70000	316
19.70833	316
19.71667	316
19.72500	317
19.73333	317
19.74167	318
19.75000	319
19.75833	319
19.76667	320
19.77500	320
19.78333	321
19.79167	321
19.80000	321
19.80833	321
19.81667	322
19.82500	322
19.83333	323
19.84167	324
19.85000	324
19.85833	324
19.86667	324
19.87500	325
19.88333	325
19.89167	325
19.90000	326
19.90833	326
19.91667	327
19.92500	327
19.93333	327
19.94167	328
19.95000	328
19.95833	329
19.96667	329
19.97500	330
19.98333	330
19.99167	331
20.00000	332
20.00833	333
20.01667	333
20.02500	334
20.03333	334
20.04167	335
20.05000	336
20.05833	337
20.06667	338
20.07500	338
20.08333	339
20.09167	339
20.10000	340
20.10833	341
20.11667	342
20.12500	343
20.13333	344
20.14167	345
20.15000	346
20.15833	347
20.16667	347
20.17500	348
20.18333	349
20.19167	350
20.20000	351
20.20833	352
20.21667	354
20.22500	355
20.23333	356
20.24167	358
20.25000	358
20.25833	359
20.26667	360
20.27500	362
20.28333	363
20.29167	365
20.30000	366
20.30833	368
20.31667	370
20.32500	372
20.33333	373
20.34167	375
20.35000	377
20.35833	379
20.36667	382
20.37500	384
20.38333	387
20.39167	389
20.40000	392
20.40833	394
20.41667	398
20.42500	401
20.43333	404
20.44167	407
20.45000	411
20.45833	415
20.46667	419
20.47500	424
20.48333	428
20.49167	434
20.50000	439
20.50833	445
20.51667	452
20.52500	459
20.53333	466
20.54167	474
20.55000	482
20.55833	490
20.56667	500
20.57500	510
20.58333	521
20.59167	533
20.60000	546
20.60833	559
20.61667	573
20.62500	588
20.63333	605
20.64167	622
20.65000	641
20.65833	660
20.66667	681
20.67500	704
20.68333	727
20.69167	752
20.70000	778
20.70833	806
20.71667	834
20.72500	864
20.73333	895
20.74167	927
20.75000	960
20.75833	995
20.76667	1030
20.77500	1065
20.78333	1102
20.79167	1139
20.80000	1177
20.80833	1215
20.81667	1252
20.82500	1290
20.83333	1327
20.84167	1365
20.85000	1402
20.85833	1439
20.86667	1476
20.87500	1511
20.88333	1546
20.89167	1580
20.90000	1613
20.90833	1645
20.91667	1676
20.92500	1707
20.93333	1737
20.94167	1765
20.95000	1794
20.95833	1821
20.96667	1849
20.97500	1875
20.98333	1902
20.99167	1929
21.00000	1956
21.00833	1983
21.01667	2011
21.02500	2040
21.03333	2070
21.04167	2102
21.05000	2135
21.05833	2170
21.06667	2208
21.07500	2249
21.08333	2293
21.09167	2341
21.10000	2393
21.10833	2450
21.11667	2512
21.12500	2579
21.13333	2653
21.14167	2733
21.15000	2820
21.15833	2915
21.16667	3019
21.17500	3133
21.18333	3256
21.19167	3390
21.20000	3536
21.20833	3692
21.21667	3862
21.22500	4044
21.23333	4239
21.24167	4448
21.25000	4671
21.25833	4908
21.26667	5160
21.27500	5425
21.28333	5705
21.29167	5998
21.30000	6304
21.30833	6623
21.31667	6953
21.32500	7294
21.33333	7645
21.34167	8003
21.35000	8368
21.35833	8738
21.36667	9111
21.37500	9484
21.38333	9857
21.39167	10226
21.40000	10589
21.40833	10944
21.41667	11289
21.42500	11621
21.43333	11938
21.44167	12239
21.45000	12519
21.45833	12779
21.46667	13015
21.47500	13226
21.48333	13411
21.49167	13568
21.50000	13696
21.50833	13795
21.51667	13863
21.52500	13901
21.53333	13908
21.54167	13885
21.55000	13832
21.55833	13749
21.56667	13638
21.57500	13500
21.58333	13335
21.59167	13144
21.60000	12931
21.60833	12696
21.61667	12441
21.62500	12168
21.63333	11878
21.64167	11574
21.65000	11258
21.65833	10932
21.66667	10598
21.67500	10257
21.68333	9911
21.69167	9562
21.70000	9213
21.70833	8863
21.71667	8516
21.72500	8171
21.73333	7831
21.74167	7498
21.75000	7170
21.75833	6850
21.76667	6539
21.77500	6236
21.78333	5943
21.79167	5659
21.80000	5386
21.80833	5123
21.81667	4871
21.82500	4629
21.83333	4398
21.84167	4177
21.85000	3968
21.85833	3768
21.86667	3578
21.87500	3398
21.88333	3227
21.89167	3066
21.90000	2913
21.90833	2769
21.91667	2633
21.92500	2505
21.93333	2384
21.94167	2270
21.95000	2162
21.95833	2061
21.96667	1966
21.97500	1877
21.98333	1793
21.99167	1715
22.00000	1641
22.00833	1572
22.01667	1507
22.02500	1447
22.03333	1390
22.04167	1337
22.05000	1287
22.05833	1240
22.06667	1196
22.07500	1155
22.08333	1117
22.09167	1081
22.10000	1048
22.10833	1017
22.11667	988
22.12500	961
22.13333	936
22.14167	912
22.15000	891
22.15833	871
22.16667	853
22.17500	836
22.18333	821
22.19167	806
22.20000	793
22.20833	782
22.21667	772
22.22500	762
22.23333	754
22.24167	746
22.25000	740
22.25833	734
22.26667	729
22.27500	724
22.28333	720
22.29167	717
22.30000	713
22.30833	710
22.31667	708
22.32500	706
22.33333	705
22.34167	703
22.35000	701
22.35833	700
22.36667	698
22.37500	697
22.38333	696
22.39167	694
22.40000	693
22.40833	692
22.41667	690
22.42500	689
22.43333	687
22.44167	685
22.45000	682
22.45833	680
22.46667	677
22.47500	675
22.48333	671
22.49167	668
22.50000	664
22.50833	660
22.51667	656
22.52500	651
22.53333	647
22.54167	642
22.55000	636
22.55833	631
22.56667	625
22.57500	619
22.58333	613
22.59167	606
22.60000	600
22.60833	593
22.61667	587
22.62500	580
22.63333	574
22.64167	567
22.65000	561
22.65833	554
22.66667	548
22.67500	541
22.68333	535
22.69167	529
22.70000	523
22.70833	517
22.71667	512
22.72500	507
22.73333	502
22.74167	498
22.75000	493
22.75833	489
22.76667	485
22.77500	481
22.78333	477
22.79167	474
22.80000	471
22.80833	468
22.81667	466
22.82500	465
22.83333	463
22.84167	462
22.85000	462
22.85833	461
22.86667	461
22.87500	460
22.88333	461
22.89167	461
22.90000	462
22.90833	463
22.91667	465
22.92500	467
22.93333	468
22.94167	471
22.95000	473
22.95833	476
22.96667	478
22.97500	481
22.98333	483
22.99167	486
23.00000	489
23.00833	492
23.01667	495
23.02500	497
23.03333	500
23.04167	502
23.05000	504
23.05833	507
23.06667	510
23.07500	512
23.08333	515
23.09167	517
23.10000	519
23.10833	521
23.11667	523
23.12500	525
23.13333	527
23.14167	528
23.15000	529
23.15833	530
23.16667	531
23.17500	533
23.18333	534
23.19167	535
23.20000	535
23.20833	536
23.21667	536
23.22500	536
23.23333	537
23.24167	537
23.25000	537
23.25833	537
23.26667	536
23.27500	536
23.28333	536
23.29167	536
23.30000	535
23.30833	535
23.31667	535
23.32500	535
23.33333	534
23.34167	534
23.35000	533
23.35833	533
23.36667	532
23.37500	531
23.38333	530
23.39167	530
23.40000	529
23.40833	529
23.41667	528
23.42500	527
23.43333	527
23.44167	526
23.45000	526
23.45833	525
23.46667	525
23.47500	524
23.48333	524
23.49167	524
23.50000	523
23.50833	522
23.51667	522
23.52500	521
23.53333	521
23.54167	520
23.55000	519
23.55833	519
23.56667	519
23.57500	518
23.58333	518
23.59167	517
23.60000	517
23.60833	517
23.61667	517
23.62500	516
23.63333	516
23.64167	515
23.65000	515
23.65833	514
23.66667	514
23.67500	514
23.68333	514
23.69167	514
23.70000	514
23.70833	514
23.71667	513
23.72500	513
23.73333	514
23.74167	514
23.75000	513
23.75833	513
23.76667	513
23.77500	513
23.78333	513
23.79167	513
23.80000	513
23.80833	513
23.81667	513
23.82500	514
23.83333	514
23.84167	514
23.85000	515
23.85833	515
23.86667	515
23.87500	515
23.88333	515
23.89167	515
23.90000	514
23.90833	514
23.91667	514
23.92500	514
23.93333	514
23.94167	515
23.95000	515
23.95833	515
23.96667	515
23.97500	515
23.98333	515
23.99167	515
24.00000	515
24.00833	515
24.01667	515
24.02500	514
24.03333	514
24.04167	513
24.05000	513
24.05833	512
24.06667	512
24.07500	511
24.08333	511
24.09167	511
24.10000	510
24.10833	508
24.11667	507
24.12500	506
24.13333	505
24.14167	504
24.15000	503
24.15833	502
24.16667	501
24.17500	499
24.18333	497
24.19167	496
24.20000	494
24.20833	492
24.21667	490
24.22500	488
24.23333	486
24.24167	484
24.25000	482
24.25833	480
24.26667	478
24.27500	476
24.28333	474
24.29167	472
24.30000	469
24.30833	467
24.31667	465
24.32500	463
24.33333	460
24.34167	458
24.35000	455
24.35833	453
24.36667	451
24.37500	449
24.38333	447
24.39167	444
24.40000	443
24.40833	441
24.41667	439
24.42500	438
24.43333	436
24.44167	434
24.45000	432
24.45833	430
24.46667	429
24.47500	427
24.48333	425
24.49167	424
24.50000	423
24.50833	422
24.51667	421
24.52500	420
24.53333	419
24.54167	418
24.55000	417
24.55833	416
24.56667	415
24.57500	414
24.58333	414
24.59167	413
24.60000	413
24.60833	412
24.61667	412
24.62500	412
24.63333	411
24.64167	410
24.65000	410
24.65833	410
24.66667	410
24.67500	410
24.68333	410
24.69167	410
24.70000	410
24.70833	410
24.71667	410
24.72500	409
24.73333	409
24.74167	409
24.75000	409
24.75833	409
24.76667	409
24.77500	409
24.78333	409
24.79167	409
24.80000	409
24.80833	408
24.81667	408
24.82500	408
24.83333	408
24.84167	408
24.85000	408
24.85833	408
24.86667	408
24.87500	408
24.88333	408
24.89167	408
24.90000	408
24.90833	407
24.91667	407
24.92500	407
24.93333	406
24.94167	406
24.95000	405
24.95833	405
24.96667	405
24.97500	405
24.98333	405
24.99167	405
25.00000	404
25.00833	404
25.01667	403
25.02500	402
25.03333	402
25.04167	401
25.05000	401
25.05833	400
25.06667	400
25.07500	399
25.08333	399
25.09167	398
25.10000	398
25.10833	397
25.11667	397
25.12500	396
25.13333	396
25.14167	395
25.15000	395
25.15833	395
25.16667	394
25.17500	394
25.18333	393
25.19167	393
25.20000	392
25.20833	392
25.21667	392
25.22500	391
25.23333	390
25.24167	390
25.25000	389
25.25833	388
25.26667	387
25.27500	386
25.28333	386
25.29167	386
25.30000	386
25.30833	385
25.31667	385
25.32500	385
25.33333	385
25.34167	384
25.35000	384
25.35833	384
25.36667	383
25.37500	383
25.38333	382
25.39167	382
25.40000	381
25.40833	381
25.41667	381
25.42500	381
25.43333	380
25.44167	380
25.45000	380
25.45833	380
25.46667	380
25.47500	380
25.48333	380
25.49167	380
25.50000	380
25.50833	381
25.51667	381
25.52500	381
25.53333	381
25.54167	381
25.55000	382
25.55833	382
25.56667	382
25.57500	383
25.58333	383
25.59167	383
25.60000	383
25.60833	384
25.61667	384
25.62500	384
25.63333	384
25.64167	385
25.65000	386
25.65833	386
25.66667	386
25.67500	387
25.68333	388
25.69167	389
25.70000	389
25.70833	390
25.71667	391
25.72500	392
25.73333	392
25.74167	393
25.75000	394
25.75833	395
25.76667	396
25.77500	396
25.78333	397
25.79167	398
25.80000	398
25.80833	400
25.81667	401
25.82500	402
25.83333	403
25.84167	404
25.85000	406
25.85833	408
25.86667	410
25.87500	412
25.88333	414
25.89167	417
25.90000	419
25.90833	421
25.91667	424
25.92500	427
25.93333	430
25.94167	434
25.95000	437
25.95833	441
25.96667	444
25.97500	448
25.98333	452
25.99167	456
26.00000	461
26.00833	467
26.01667	473
26.02500	480
26.03333	486
26.04167	494
26.05000	501
26.05833	510
26.06667	518
26.07500	528
26.08333	538
26.09167	549
26.10000	560
26.10833	572
26.11667	585
26.12500	599
26.13333	613
26.14167	628
26.15000	644
26.15833	661
26.16667	680
26.17500	699
26.18333	719
26.19167	740
26.20000	762
26.20833	785
26.21667	810
26.22500	836
26.23333	864
26.24167	893
26.25000	923
26.25833	954
26.26667	987
26.27500	1021
26.28333	1056
26.29167	1091
26.30000	1128
26.30833	1166
26.31667	1204
26.32500	1244
26.33333	1284
26.34167	1324
26.35000	1366
26.35833	1407
26.36667	1449
26.37500	1490
26.38333	1532
26.39167	1572
26.40000	1613
26.40833	1652
26.41667	1691
26.42500	1728
26.43333	1764
26.44167	1798
26.45000	1831
26.45833	1862
26.46667	1890
26.47500	1916
26.48333	1940
26.49167	1962
26.50000	1981
26.50833	1997
26.51667	2010
26.52500	2021
26.53333	2029
26.54167	2033
26.55000	2034
26.55833	2032
26.56667	2028
26.57500	2020
26.58333	2009
26.59167	1995
26.60000	1979
26.60833	1960
26.61667	1938
26.62500	1914
26.63333	1888
26.64167	1859
26.65000	1828
26.65833	1795
26.66667	1761
26.67500	1726
26.68333	1689
26.69167	1651
26.70000	1613
26.70833	1573
26.71667	1533
26.72500	1493
26.73333	1453
26.74167	1413
26.75000	1373
26.75833	1332
26.76667	1292
26.77500	1253
26.78333	1213
26.79167	1175
26.80000	1137
26.80833	1100
26.81667	1065
26.82500	1030
26.83333	996
26.84167	963
26.85000	932
26.85833	901
26.86667	871
26.87500	843
26.88333	815
26.89167	789
26.90000	764
26.90833	740
26.91667	717
26.92500	695
26.93333	675
26.94167	654
26.95000	635
26.95833	617
26.96667	600
26.97500	583
26.98333	568
26.99167	553
27.00000	539
27.00833	525
27.01667	513
27.02500	500
27.03333	489
27.04167	478
27.05000	467
27.05833	457
27.06667	447
27.07500	438
27.08333	430
27.09167	421
27.10000	414
27.10833	406
27.11667	398
27.12500	391
27.13333	384
27.14167	378
27.15000	371
27.15833	365
27.16667	359
27.17500	353
27.18333	348
27.19167	343
27.20000	338
27.20833	333
27.21667	328
27.22500	324
27.23333	319
27.24167	315
27.25000	310
27.25833	307
27.26667	303
27.27500	299
27.28333	296
27.29167	292
27.30000	288
27.30833	284
27.31667	281
27.32500	277
27.33333	274
27.34167	270
27.35000	267
27.35833	264
27.36667	261
27.37500	258
27.38333	256
27.39167	253
27.40000	250
27.40833	248
27.41667	246
27.42500	243
27.43333	241
27.44167	238
27.45000	236
27.45833	233
27.46667	231
27.47500	229
27.48333	228
27.49167	226
27.50000	224
27.50833	223
27.51667	221
27.52500	219
27.53333	217
27.54167	216
27.55000	214
27.55833	213
27.56667	211
27.57500	210
27.58333	209
27.59167	208
27.60000	207
27.60833	205
27.61667	205
27.62500	204
27.63333	203
27.64167	202
27.65000	201
27.65833	200
27.66667	199
27.67500	198
27.68333	197
27.69167	196
27.70000	196
27.70833	195
27.71667	194
27.72500	194
27.73333	193
27.74167	193
27.75000	192
27.75833	191
27.76667	190
27.77500	190
27.78333	189
27.79167	188
27.80000	188
27.80833	188
27.81667	187
27.82500	187
27.83333	186
27.84167	185
27.85000	185
27.85833	184
27.86667	183
27.87500	183
27.88333	182
27.89167	182
27.90000	181
27.90833	180
27.91667	179
27.92500	179
27.93333	178
27.94167	177
27.95000	177
27.95833	177
27.96667	177
27.97500	177
27.98333	176
27.99167	175
28.00000	174

